title:alarm sound, start timestamp:1698692118.947207, stop timestamp:1698692180.744161, headset type:INSIGHT, headset serial:5A688E18, headset firmware:926, channels:53, sampling rate:eeg_128;pow_8, samples:7843      , version:2.2, 
Timestamp,OriginalTimestamp,EEG.Counter,EEG.Interpolated,EEG.AF3,EEG.T7,EEG.Pz,EEG.T8,EEG.AF4,EEG.RawCq,EEG.Battery,EEG.BatteryPercent,MarkerIndex,MarkerType,MarkerValueInt,EEG.MarkerHardware,CQ.AF3,CQ.T7,CQ.Pz,CQ.T8,CQ.AF4,CQ.Overall,EQ.SampleRateQuality,EQ.OVERALL,EQ.AF3,EQ.T7,EQ.Pz,EQ.T8,EQ.AF4,POW.AF3.Theta,POW.AF3.Alpha,POW.AF3.BetaL,POW.AF3.BetaH,POW.AF3.Gamma,POW.T7.Theta,POW.T7.Alpha,POW.T7.BetaL,POW.T7.BetaH,POW.T7.Gamma,POW.Pz.Theta,POW.Pz.Alpha,POW.Pz.BetaL,POW.Pz.BetaH,POW.Pz.Gamma,POW.T8.Theta,POW.T8.Alpha,POW.T8.BetaL,POW.T8.BetaH,POW.T8.Gamma,POW.AF4.Theta,POW.AF4.Alpha,POW.AF4.BetaL,POW.AF4.BetaH,POW.AF4.Gamma
1698692118.947207,1698692118.948102,69.000000,0.000000,4392.307617,4430.769043,4531.794922,4495.384766,4233.333496,450.000000,1.000000,21.000000,,,,0.000000,2.000000,2.000000,4.000000,4.000000,0.000000,33.333332,,,,,,,,,,,,,,,,,,,,,,,,,,,,,,,,
1698692118.955088,1698692118.955883,70.000000,0.000000,4392.307617,4420.512695,4515.384766,4495.897461,4233.333496,299.000000,1.000000,21.000000,,,,0.000000,2.000000,2.000000,2.000000,4.000000,0.000000,33.333332,,,,,,,,,,,,,,,,,,,,,,,,,,,,,,,,
1698692118.962968,1698692118.963863,71.000000,0.000000,4422.563965,4445.128418,4510.256348,4500.512695,4233.333496,450.000000,1.000000,21.000000,,,,0.000000,2.000000,2.000000,2.000000,4.000000,0.000000,33.333332,,,,,,,,,,,,,,,,,,,,,,,,,,,,,,,,
1698692118.970848,1698692118.971843,72.000000,0.000000,4436.922852,4457.436035,4504.102539,4491.282227,4233.333496,450.000000,1.000000,21.000000,,,,0.000000,2.000000,2.000000,2.000000,4.000000,0.000000,33.333332,,,,,,,,,,,,,,,,,,,,,,,,,,,,,,,,
1698692118.978728,1698692118.979823,73.000000,0.000000,4421.538574,4414.358887,4475.384766,4468.205078,4233.333496,1023.000000,1.000000,21.000000,,,,0.000000,2.000000,2.000000,2.000000,4.000000,0.000000,33.333332,,,,,,,,,,,,,,,,,,,,,,,,,,,,,,,,
1698692118.986609,1698692118.987604,74.000000,0.000000,4438.461426,4385.641113,4464.102539,4475.384766,4233.333496,450.000000,1.000000,21.000000,,,,0.000000,2.000000,2.000000,2.000000,4.000000,0.000000,33.333332,,,,,,,,,,,,,,,,,,,,,,,,,,,,,,,,
1698692118.994489,1698692118.995584,75.000000,0.000000,4478.461426,4397.948730,4471.794922,4488.205078,4233.333496,0.000000,1.000000,21.000000,,,,0.000000,2.000000,2.000000,2.000000,4.000000,0.000000,33.333332,,,,,,,,,,,,,,,,,,,,,,,,,,,,,,,,
1698692119.002369,1698692119.003364,76.000000,0.000000,4522.051270,4410.256348,4484.615234,4485.641113,4233.333496,450.000000,1.000000,21.000000,,,,0.000000,2.000000,2.000000,2.000000,4.000000,0.000000,33.333332,,,,,,,,,,,,,,,,,,,,,,,,,,,,,,,,
1698692119.010249,1698692119.011345,77.000000,0.000000,4533.333496,4393.846191,4472.820313,4470.256348,4233.333496,450.000000,1.000000,21.000000,,,,0.000000,2.000000,2.000000,2.000000,4.000000,0.000000,33.333332,1.000000,0.000000,0.000000,0.000000,0.000000,0.000000,0.000000,115.580437,13.584872,6.303427,2.296652,1.314862,37.254181,3.042002,6.914751,1.560083,2.693612,23.901196,3.496680,4.982265,2.418967,1.313285,35.629299,6.703859,8.454103,2.864252,1.702077,0.112568,0.030296,0.229709,0.111081,0.090960
1698692119.018130,1698692119.019125,78.000000,0.000000,4532.307617,4400.000000,4468.205078,4474.871582,4233.333496,450.000000,1.000000,21.000000,,,,0.000000,2.000000,2.000000,2.000000,4.000000,0.000000,33.333332,,,,,,,,,,,,,,,,,,,,,,,,,,,,,,,,
1698692119.026010,1698692119.027105,79.000000,0.000000,4550.769043,4434.871582,4481.025879,4478.974121,4233.333496,0.000000,1.000000,21.000000,,,,0.000000,2.000000,2.000000,2.000000,4.000000,0.000000,33.333332,,,,,,,,,,,,,,,,,,,,,,,,,,,,,,,,
1698692119.033890,1698692119.034886,80.000000,0.000000,4534.871582,4414.358887,4463.077148,4437.436035,4233.333496,450.000000,1.000000,21.000000,,,,0.000000,2.000000,2.000000,2.000000,4.000000,0.000000,33.333332,,,,,,,,,,,,,,,,,,,,,,,,,,,,,,,,
1698692119.041770,1698692119.042866,81.000000,0.000000,4506.153809,4385.641113,4444.102539,4423.077148,4233.333496,450.000000,1.000000,21.000000,,,,0.000000,2.000000,2.000000,2.000000,4.000000,0.000000,33.333332,,,,,,,,,,,,,,,,,,,,,,,,,,,,,,,,
1698692119.049651,1698692119.050646,82.000000,0.000000,4493.333496,4383.589844,4433.333496,4432.820313,4233.333496,450.000000,1.000000,21.000000,,,,0.000000,2.000000,2.000000,2.000000,4.000000,0.000000,33.333332,,,,,,,,,,,,,,,,,,,,,,,,,,,,,,,,
1698692119.057531,1698692119.058627,83.000000,0.000000,4487.692383,4381.538574,4424.102539,4419.487305,4233.333496,0.000000,1.000000,21.000000,,,,0.000000,2.000000,2.000000,2.000000,4.000000,0.000000,33.333332,,,,,,,,,,,,,,,,,,,,,,,,,,,,,,,,
1698692119.065411,1698692119.066407,84.000000,0.000000,4488.717773,4381.538574,4425.641113,4421.538574,4233.333496,450.000000,1.000000,21.000000,,,,0.000000,2.000000,2.000000,2.000000,4.000000,0.000000,33.333332,,,,,,,,,,,,,,,,,,,,,,,,,,,,,,,,
1698692119.073291,1698692119.074387,85.000000,0.000000,4476.922852,4365.128418,4416.410156,4427.179688,4233.333496,450.000000,1.000000,21.000000,,,,0.000000,2.000000,2.000000,2.000000,4.000000,0.000000,33.333332,,,,,,,,,,,,,,,,,,,,,,,,,,,,,,,,
1698692119.081172,1698692119.082167,86.000000,0.000000,4472.820313,4375.384766,4429.743652,4433.846191,4233.846191,450.000000,1.000000,21.000000,,,,0.000000,2.000000,2.000000,2.000000,4.000000,0.000000,33.333332,,,,,,,,,,,,,,,,,,,,,,,,,,,,,,,,
1698692119.089052,1698692119.090148,87.000000,0.000000,4460.512695,4393.846191,4454.871582,4440.512695,4234.358887,0.000000,1.000000,21.000000,,,,0.000000,2.000000,2.000000,2.000000,4.000000,0.000000,33.333332,,,,,,,,,,,,,,,,,,,,,,,,,,,,,,,,
1698692119.096932,1698692119.097928,88.000000,0.000000,4426.153809,4377.436035,4455.897461,4437.436035,4234.358887,450.000000,1.000000,21.000000,,,,0.000000,2.000000,2.000000,2.000000,4.000000,0.000000,33.333332,,,,,,,,,,,,,,,,,,,,,,,,,,,,,,,,
1698692119.104813,1698692119.105908,89.000000,0.000000,4416.410156,4369.230957,4448.205078,4437.948730,4233.846191,450.000000,1.000000,21.000000,,,,0.000000,2.000000,2.000000,2.000000,4.000000,0.000000,33.333332,,,,,,,,,,,,,,,,,,,,,,,,,,,,,,,,
1698692119.112693,1698692119.113688,90.000000,0.000000,4400.000000,4350.769043,4420.000000,4406.666504,4233.333496,450.000000,1.000000,21.000000,,,,0.000000,2.000000,2.000000,2.000000,4.000000,0.000000,33.333332,,,,,,,,,,,,,,,,,,,,,,,,,,,,,,,,
1698692119.120573,1698692119.121668,91.000000,0.000000,4371.794922,4330.256348,4386.153809,4375.384766,4233.333496,0.000000,1.000000,21.000000,,,,0.000000,2.000000,2.000000,2.000000,4.000000,0.000000,33.333332,,,,,,,,,,,,,,,,,,,,,,,,,,,,,,,,
1698692119.128453,1698692119.129449,92.000000,0.000000,4354.358887,4344.615234,4357.948730,4372.820313,4233.333496,450.000000,1.000000,21.000000,,,,0.000000,2.000000,2.000000,2.000000,4.000000,0.000000,33.333332,,,,,,,,,,,,,,,,,,,,,,,,,,,,,,,,
1698692119.136333,1698692119.137429,93.000000,0.000000,4344.102539,4354.871582,4336.922852,4368.205078,4233.333496,450.000000,1.000000,21.000000,,,,0.000000,2.000000,2.000000,2.000000,4.000000,0.000000,33.333332,,,,,,,,124.770691,15.471908,4.861088,2.496326,1.277793,30.241852,2.573516,5.791329,1.442284,2.473044,19.531212,3.171783,3.841691,2.826562,1.242200,29.637091,6.204899,7.597229,3.671158,1.537419,0.096711,0.022628,0.178312,0.090138,0.071456
1698692119.144214,1698692119.145209,94.000000,0.000000,4346.666504,4336.410156,4351.794922,4369.230957,4233.333496,450.000000,1.000000,21.000000,,,,0.000000,2.000000,2.000000,2.000000,4.000000,0.000000,33.333332,,,,,,,,,,,,,,,,,,,,,,,,,,,,,,,,
1698692119.152094,1698692119.152989,95.000000,0.000000,4340.512695,4320.000000,4369.230957,4360.000000,4233.333496,0.000000,1.000000,21.000000,,,,0.000000,2.000000,2.000000,2.000000,4.000000,0.000000,33.333332,,,,,,,,,,,,,,,,,,,,,,,,,,,,,,,,
1698692119.159974,1698692119.160770,96.000000,0.000000,4349.230957,4330.256348,4383.589844,4361.025879,4233.333496,450.000000,1.000000,21.000000,,,,0.000000,2.000000,2.000000,2.000000,4.000000,0.000000,33.333332,,,,,,,,,,,,,,,,,,,,,,,,,,,,,,,,
1698692119.167854,1698692119.168550,97.000000,0.000000,4356.922852,4315.897461,4390.256348,4371.794922,4233.333496,450.000000,1.000000,21.000000,,,,0.000000,2.000000,2.000000,2.000000,4.000000,0.000000,33.333332,,,,,,,,,,,,,,,,,,,,,,,,,,,,,,,,
1698692119.175735,1698692119.176330,98.000000,0.000000,4333.846191,4295.384766,4381.538574,4362.563965,4233.333496,450.000000,1.000000,21.000000,,,,0.000000,2.000000,2.000000,2.000000,4.000000,0.000000,33.333332,,,,,,,,,,,,,,,,,,,,,,,,,,,,,,,,
1698692119.183615,1698692119.184111,99.000000,0.000000,4338.974121,4315.897461,4405.128418,4380.512695,4233.333496,0.000000,1.000000,21.000000,,,,0.000000,2.000000,2.000000,2.000000,4.000000,0.000000,33.333332,,,,,,,,,,,,,,,,,,,,,,,,,,,,,,,,
1698692119.191495,1698692119.191891,100.000000,0.000000,4350.769043,4322.051270,4425.128418,4402.563965,4233.333496,450.000000,1.000000,21.000000,,,,0.000000,2.000000,2.000000,2.000000,4.000000,0.000000,33.333332,,,,,,,,,,,,,,,,,,,,,,,,,,,,,,,,
1698692119.199376,1698692119.199871,101.000000,0.000000,4343.589844,4338.461426,4416.922852,4396.922852,4233.333496,450.000000,1.000000,21.000000,,,,0.000000,2.000000,2.000000,2.000000,4.000000,0.000000,33.333332,,,,,,,,,,,,,,,,,,,,,,,,,,,,,,,,
1698692119.207256,1698692119.207852,102.000000,0.000000,4333.846191,4369.230957,4400.512695,4389.743652,4233.333496,450.000000,1.000000,21.000000,,,,0.000000,2.000000,2.000000,2.000000,4.000000,0.000000,33.333332,,,,,,,,,,,,,,,,,,,,,,,,,,,,,,,,
1698692119.215136,1698692119.215832,103.000000,0.000000,4330.256348,4356.922852,4391.794922,4389.743652,4233.333496,0.000000,1.000000,21.000000,,,,0.000000,2.000000,2.000000,2.000000,4.000000,0.000000,33.333332,,,,,,,,,,,,,,,,,,,,,,,,,,,,,,,,
1698692119.223016,1698692119.223812,104.000000,0.000000,4342.051270,4361.025879,4406.153809,4390.256348,4233.333496,450.000000,1.000000,21.000000,,,,0.000000,2.000000,2.000000,2.000000,4.000000,0.000000,33.333332,,,,,,,,,,,,,,,,,,,,,,,,,,,,,,,,
1698692119.230896,1698692119.231593,105.000000,0.000000,4314.871582,4354.871582,4392.307617,4356.922852,4233.333496,450.000000,1.000000,21.000000,,,,0.000000,2.000000,2.000000,2.000000,4.000000,0.000000,33.333332,,,,,,,,,,,,,,,,,,,,,,,,,,,,,,,,
1698692119.238777,1698692119.239373,106.000000,0.000000,4275.897461,4326.153809,4370.769043,4336.922852,4233.333496,450.000000,1.000000,21.000000,,,,0.000000,2.000000,2.000000,2.000000,4.000000,0.000000,33.333332,,,,,,,,,,,,,,,,,,,,,,,,,,,,,,,,
1698692119.246657,1698692119.247153,107.000000,0.000000,4267.692383,4320.000000,4374.871582,4349.743652,4233.333496,0.000000,1.000000,21.000000,,,,0.000000,2.000000,2.000000,2.000000,4.000000,0.000000,33.333332,,,,,,,,,,,,,,,,,,,,,,,,,,,,,,,,
1698692119.254537,1698692119.254934,108.000000,0.000000,4244.615234,4315.897461,4368.717773,4342.563965,4233.333496,450.000000,1.000000,21.000000,,,,0.000000,2.000000,2.000000,2.000000,4.000000,0.000000,33.333332,,,,,,,,,,,,,,,,,,,,,,,,,,,,,,,,
1698692119.262417,1698692119.262914,109.000000,0.000000,4236.410156,4322.051270,4361.025879,4333.333496,4233.333496,450.000000,1.000000,21.000000,,,,0.000000,2.000000,2.000000,2.000000,4.000000,0.000000,33.333332,,,,,,,,128.545471,17.098976,3.469014,2.681354,1.263899,21.127317,2.128865,4.637409,1.428502,2.222358,15.034616,2.912117,2.782994,3.191782,1.135825,22.007286,5.555939,6.426986,4.280591,1.346247,0.071179,0.014376,0.117261,0.062468,0.047797
1698692119.270298,1698692119.270894,110.000000,0.000000,4251.794922,4330.256348,4357.436035,4330.769043,4233.333496,450.000000,1.000000,21.000000,,,,0.000000,2.000000,2.000000,2.000000,4.000000,0.000000,33.333332,,,,,,,,,,,,,,,,,,,,,,,,,,,,,,,,
1698692119.278178,1698692119.278874,111.000000,0.000000,4269.743652,4338.461426,4373.846191,4354.871582,4233.333496,0.000000,1.000000,21.000000,,,,0.000000,2.000000,2.000000,2.000000,4.000000,0.000000,33.333332,,,,,,,,,,,,,,,,,,,,,,,,,,,,,,,,
1698692119.286058,1698692119.286855,112.000000,0.000000,4272.307617,4336.410156,4392.820313,4379.487305,4233.333496,450.000000,1.000000,21.000000,,,,0.000000,2.000000,2.000000,2.000000,4.000000,0.000000,33.333332,,,,,,,,,,,,,,,,,,,,,,,,,,,,,,,,
1698692119.293939,1698692119.294835,113.000000,0.000000,4236.410156,4309.743652,4365.128418,4340.000000,4233.333496,450.000000,1.000000,21.000000,,,,0.000000,2.000000,2.000000,2.000000,4.000000,0.000000,33.333332,,,,,,,,,,,,,,,,,,,,,,,,,,,,,,,,
1698692119.301819,1698692119.302615,114.000000,0.000000,4225.128418,4309.743652,4353.333496,4318.461426,4233.333496,450.000000,1.000000,21.000000,,,,0.000000,2.000000,2.000000,2.000000,4.000000,0.000000,33.333332,,,,,,,,,,,,,,,,,,,,,,,,,,,,,,,,
1698692119.309699,1698692119.310596,115.000000,0.000000,4243.077148,4313.846191,4370.769043,4330.256348,4233.333496,0.000000,1.000000,21.000000,,,,0.000000,2.000000,2.000000,2.000000,4.000000,0.000000,33.333332,,,,,,,,,,,,,,,,,,,,,,,,,,,,,,,,
1698692119.317579,1698692119.318376,116.000000,0.000000,4236.410156,4293.333496,4361.025879,4315.897461,4233.333496,450.000000,1.000000,21.000000,,,,0.000000,2.000000,2.000000,2.000000,4.000000,0.000000,33.333332,,,,,,,,,,,,,,,,,,,,,,,,,,,,,,,,
1698692119.325460,1698692119.326356,117.000000,0.000000,4223.077148,4299.487305,4342.051270,4321.025879,4233.333496,450.000000,1.000000,21.000000,,,,0.000000,2.000000,2.000000,2.000000,4.000000,0.000000,33.333332,,,,,,,,,,,,,,,,,,,,,,,,,,,,,,,,
1698692119.333340,1698692119.334137,118.000000,0.000000,4221.025879,4309.743652,4331.794922,4328.717773,4233.333496,450.000000,1.000000,21.000000,,,,0.000000,2.000000,2.000000,2.000000,4.000000,0.000000,33.333332,,,,,,,,,,,,,,,,,,,,,,,,,,,,,,,,
1698692119.341220,1698692119.342117,119.000000,0.000000,4223.589844,4305.641113,4334.871582,4308.205078,4233.333496,0.000000,1.000000,21.000000,,,,0.000000,2.000000,2.000000,2.000000,4.000000,0.000000,33.333332,,,,,,,,,,,,,,,,,,,,,,,,,,,,,,,,
1698692119.349100,1698692119.349897,120.000000,0.000000,4200.512695,4295.384766,4325.641113,4287.692383,4233.333496,450.000000,1.000000,21.000000,,,,0.000000,2.000000,2.000000,2.000000,4.000000,0.000000,33.333332,,,,,,,,,,,,,,,,,,,,,,,,,,,,,,,,
1698692119.356980,1698692119.357878,121.000000,0.000000,4187.692383,4272.820313,4312.307617,4289.743652,4233.333496,450.000000,1.000000,21.000000,,,,0.000000,2.000000,2.000000,2.000000,4.000000,0.000000,33.333332,,,,,,,,,,,,,,,,,,,,,,,,,,,,,,,,
1698692119.364861,1698692119.365658,122.000000,0.000000,4223.077148,4258.461426,4317.948730,4313.846191,4233.333496,450.000000,1.000000,21.000000,,,,0.000000,2.000000,2.000000,2.000000,4.000000,0.000000,33.333332,,,,,,,,,,,,,,,,,,,,,,,,,,,,,,,,
1698692119.372741,1698692119.373638,123.000000,0.000000,4243.077148,4268.717773,4313.846191,4323.589844,4233.333496,0.000000,1.000000,21.000000,,,,0.000000,2.000000,2.000000,2.000000,4.000000,0.000000,33.333332,,,,,,,,,,,,,,,,,,,,,,,,,,,,,,,,
1698692119.380621,1698692119.381419,124.000000,0.000000,4258.974121,4305.641113,4329.743652,4344.615234,4233.333496,450.000000,1.000000,21.000000,,,,0.000000,2.000000,2.000000,2.000000,4.000000,0.000000,33.333332,,,,,,,,,,,,,,,,,,,,,,,,,,,,,,,,
1698692119.388502,1698692119.389399,125.000000,0.000000,4283.077148,4303.589844,4354.358887,4364.615234,4233.333496,450.000000,1.000000,21.000000,,,,0.000000,2.000000,2.000000,2.000000,4.000000,0.000000,33.333332,,,,,,,,122.312210,17.905563,2.407423,2.822950,1.270973,13.961615,1.750319,3.781337,1.452582,2.015887,12.122911,2.927100,2.231520,3.498940,1.042319,15.361708,4.885458,5.239418,4.520969,1.157376,0.044286,0.007807,0.063754,0.036183,0.026579
1698692119.396382,1698692119.397179,126.000000,0.000000,4281.538574,4276.922852,4356.922852,4360.512695,4233.333496,450.000000,1.000000,21.000000,,,,0.000000,2.000000,2.000000,2.000000,4.000000,0.000000,33.333332,,,,,,,,,,,,,,,,,,,,,,,,,,,,,,,,
1698692119.404262,1698692119.405159,127.000000,0.000000,4273.846191,4276.922852,4357.948730,4364.615234,4233.333496,229.000000,1.000000,21.000000,,,,0.000000,2.000000,2.000000,2.000000,4.000000,0.000000,33.333332,,,,,,,,,,,,,,,,,,,,,,,,,,,,,,,,
1698692119.412142,1698692119.412940,0.000000,0.000000,4260.000000,4264.615234,4355.384766,4362.051270,4233.333496,450.000000,1.000000,21.000000,,,,0.000000,2.000000,2.000000,2.000000,4.000000,0.000000,33.333332,,,,,,,,,,,,,,,,,,,,,,,,,,,,,,,,
1698692119.420023,1698692119.420920,1.000000,0.000000,4253.846191,4262.563965,4364.102539,4374.871582,4233.333496,450.000000,1.000000,21.000000,,,,0.000000,2.000000,2.000000,2.000000,4.000000,0.000000,33.333332,,,,,,,,,,,,,,,,,,,,,,,,,,,,,,,,
1698692119.427903,1698692119.428700,2.000000,0.000000,4239.487305,4270.769043,4363.589844,4395.897461,4233.333496,1023.000000,1.000000,21.000000,,,,0.000000,4.000000,2.000000,2.000000,4.000000,0.000000,33.333332,,,,,,,,,,,,,,,,,,,,,,,,,,,,,,,,
1698692119.435783,1698692119.436680,3.000000,0.000000,4202.563965,4250.256348,4336.922852,4374.871582,4233.333496,450.000000,1.000000,21.000000,,,,0.000000,4.000000,2.000000,2.000000,4.000000,0.000000,33.333332,,,,,,,,,,,,,,,,,,,,,,,,,,,,,,,,
1698692119.443663,1698692119.444460,4.000000,0.000000,4189.230957,4233.846191,4320.000000,4344.102539,4233.333496,1023.000000,1.000000,21.000000,,,,0.000000,4.000000,4.000000,2.000000,4.000000,0.000000,50.000000,,,,,,,,,,,,,,,,,,,,,,,,,,,,,,,,
1698692119.451544,1698692119.452441,5.000000,0.000000,4173.846191,4203.077148,4301.538574,4325.641113,4233.333496,450.000000,1.000000,21.000000,,,,0.000000,4.000000,4.000000,2.000000,4.000000,0.000000,50.000000,,,,,,,,,,,,,,,,,,,,,,,,,,,,,,,,
1698692119.459424,1698692119.460221,6.000000,0.000000,4154.358887,4180.512695,4290.256348,4322.051270,4233.333496,1023.000000,1.000000,21.000000,,,,0.000000,4.000000,4.000000,4.000000,4.000000,0.000000,66.666664,,,,,,,,,,,,,,,,,,,,,,,,,,,,,,,,
1698692119.467304,1698692119.468201,7.000000,0.000000,4153.846191,4190.769043,4289.230957,4320.000000,4233.333496,450.000000,1.000000,21.000000,,,,0.000000,4.000000,4.000000,4.000000,4.000000,0.000000,66.666664,,,,,,,,,,,,,,,,,,,,,,,,,,,,,,,,
1698692119.475184,1698692119.475981,8.000000,0.000000,4147.692383,4203.077148,4288.717773,4303.589844,4233.333496,450.000000,1.000000,21.000000,,,,0.000000,4.000000,4.000000,4.000000,4.000000,0.000000,66.666664,,,,,,,,,,,,,,,,,,,,,,,,,,,,,,,,
1698692119.483065,1698692119.483961,9.000000,0.000000,4142.563965,4205.128418,4299.487305,4295.897461,4233.333496,1023.000000,1.000000,21.000000,,,,0.000000,4.000000,4.000000,4.000000,4.000000,0.000000,66.666664,,,,,,,,,,,,,,,,,,,,,,,,,,,,,,,,
1698692119.490945,1698692119.491742,10.000000,0.000000,4130.769043,4188.717773,4285.128418,4282.563965,4233.333496,450.000000,1.000000,21.000000,,,,0.000000,4.000000,4.000000,4.000000,4.000000,0.000000,66.666664,,,,,,,,,,,,,,,,,,,,,,,,,,,,,,,,
1698692119.498825,1698692119.499522,11.000000,0.000000,4135.897461,4184.615234,4272.307617,4277.948730,4233.333496,0.000000,1.000000,21.000000,,,,0.000000,4.000000,4.000000,4.000000,4.000000,0.000000,66.666664,,,,,,,,,,,,,,,,,,,,,,,,,,,,,,,,
1698692119.506705,1698692119.507302,12.000000,0.000000,4152.307617,4188.717773,4282.563965,4280.512695,4232.820313,450.000000,1.000000,21.000000,,,,0.000000,4.000000,4.000000,4.000000,4.000000,0.000000,66.666664,,,,,,,,,,,,,,,,,,,,,,,,,,,,,,,,
1698692119.514586,1698692119.515283,13.000000,0.000000,4141.538574,4178.461426,4280.512695,4272.820313,4232.307617,450.000000,1.000000,21.000000,,,,0.000000,4.000000,4.000000,4.000000,4.000000,0.000000,66.666664,1.000000,0.000000,1.000000,0.000000,0.000000,0.000000,0.000000,112.108543,17.477137,1.805565,2.884641,1.274742,8.523788,1.523168,3.405325,1.511145,1.888556,11.726465,3.526134,2.429284,3.717666,0.991761,11.210308,4.501301,4.229340,4.339663,0.999792,0.023102,0.003899,0.028184,0.017043,0.011925
1698692119.522466,1698692119.523263,14.000000,0.000000,4145.128418,4194.871582,4288.205078,4289.743652,4232.307617,450.000000,1.000000,21.000000,,,,0.000000,4.000000,4.000000,4.000000,4.000000,0.000000,66.666664,,,,,,,,,,,,,,,,,,,,,,,,,,,,,,,,
1698692119.530346,1698692119.531043,15.000000,0.000000,4144.615234,4188.717773,4286.153809,4285.641113,4232.820313,0.000000,1.000000,21.000000,,,,0.000000,4.000000,4.000000,4.000000,4.000000,0.000000,66.666664,,,,,,,,,,,,,,,,,,,,,,,,,,,,,,,,
1698692119.538226,1698692119.538824,16.000000,0.000000,4128.717773,4164.102539,4275.384766,4262.051270,4233.333496,0.000000,1.000000,21.000000,,,,0.000000,4.000000,4.000000,4.000000,4.000000,0.000000,66.666664,,,,,,,,,,,,,,,,,,,,,,,,,,,,,,,,
1698692119.546107,1698692119.546604,17.000000,0.000000,4120.512695,4182.563965,4276.922852,4266.153809,4232.820313,0.000000,1.000000,21.000000,,,,0.000000,4.000000,4.000000,4.000000,4.000000,0.000000,66.666664,,,,,,,,,,,,,,,,,,,,,,,,,,,,,,,,
1698692119.553987,1698692119.554384,18.000000,0.000000,4107.179688,4182.563965,4271.282227,4282.563965,4232.820313,0.000000,1.000000,21.000000,,,,0.000000,4.000000,4.000000,4.000000,4.000000,0.000000,66.666664,,,,,,,,,,,,,,,,,,,,,,,,,,,,,,,,
1698692119.561867,1698692119.562165,19.000000,0.000000,4120.000000,4160.000000,4274.871582,4292.307617,4233.333496,0.000000,1.000000,21.000000,,,,0.000000,4.000000,4.000000,4.000000,4.000000,0.000000,66.666664,,,,,,,,,,,,,,,,,,,,,,,,,,,,,,,,
1698692119.569747,1698692119.569945,20.000000,0.000000,4109.743652,4147.692383,4256.922852,4244.615234,4233.333496,0.000000,1.000000,21.000000,,,,0.000000,4.000000,4.000000,4.000000,4.000000,0.000000,66.666664,,,,,,,,,,,,,,,,,,,,,,,,,,,,,,,,
1698692119.577628,1698692119.577925,21.000000,0.000000,4077.948730,4149.743652,4225.641113,4203.077148,4233.333496,0.000000,1.000000,21.000000,,,,0.000000,4.000000,4.000000,4.000000,4.000000,0.000000,66.666664,,,,,,,,,,,,,,,,,,,,,,,,,,,,,,,,
1698692119.585508,1698692119.585905,22.000000,0.000000,4103.077148,4166.153809,4236.410156,4241.538574,4233.333496,0.000000,1.000000,21.000000,,,,0.000000,4.000000,4.000000,4.000000,4.000000,0.000000,66.666664,,,,,,,,,,,,,,,,,,,,,,,,,,,,,,,,
1698692119.593388,1698692119.593886,23.000000,0.000000,4116.922852,4157.948730,4237.948730,4252.820313,4233.333496,0.000000,1.000000,21.000000,,,,0.000000,4.000000,4.000000,4.000000,4.000000,0.000000,66.666664,,,,,,,,,,,,,,,,,,,,,,,,,,,,,,,,
1698692119.601268,1698692119.601866,24.000000,0.000000,4089.743652,4131.282227,4214.358887,4221.538574,4233.333496,0.000000,1.000000,21.000000,,,,0.000000,4.000000,4.000000,4.000000,4.000000,0.000000,66.666664,,,,,,,,,,,,,,,,,,,,,,,,,,,,,,,,
1698692119.609149,1698692119.609846,25.000000,0.000000,4072.307617,4121.025879,4198.974121,4215.384766,4232.307617,0.000000,1.000000,21.000000,,,,0.000000,4.000000,4.000000,4.000000,4.000000,0.000000,66.666664,,,,,,,,,,,,,,,,,,,,,,,,,,,,,,,,
1698692119.617029,1698692119.617826,26.000000,0.000000,4085.128174,4137.436035,4214.871582,4222.563965,4231.794922,0.000000,1.000000,21.000000,,,,0.000000,4.000000,4.000000,4.000000,4.000000,0.000000,66.666664,,,,,,,,,,,,,,,,,,,,,,,,,,,,,,,,
1698692119.624909,1698692119.625809,27.000000,0.000000,4104.615234,4147.692383,4232.820313,4224.102539,4231.794922,0.000000,1.000000,21.000000,,,,0.000000,4.000000,4.000000,4.000000,4.000000,0.000000,66.666664,,,,,,,,,,,,,,,,,,,,,,,,,,,,,,,,
1698692119.632789,1698692119.633792,28.000000,0.000000,4089.743652,4125.128418,4206.666504,4213.846191,4231.794922,0.000000,1.000000,21.000000,,,,0.000000,4.000000,4.000000,4.000000,4.000000,0.000000,66.666664,,,,,,,,,,,,,,,,,,,,,,,,,,,,,,,,
1698692119.640670,1698692119.641775,29.000000,0.000000,4076.410156,4118.974121,4188.205078,4218.974121,4231.794922,0.000000,1.000000,21.000000,,,,0.000000,4.000000,4.000000,4.000000,4.000000,0.000000,66.666664,,,,,,,,100.026749,15.877721,1.646785,2.848456,1.246953,5.163534,1.507037,3.446222,1.635303,1.818332,11.929847,4.879255,3.328927,3.803657,0.986790,8.844424,4.699217,3.421409,3.826740,0.894352,0.010549,0.002250,0.011005,0.006521,0.004313
1698692119.648550,1698692119.649757,30.000000,0.000000,4078.974365,4133.333496,4199.487305,4230.769043,4231.794922,0.000000,1.000000,21.000000,,,,0.000000,4.000000,4.000000,4.000000,4.000000,0.000000,66.666664,,,,,,,,,,,,,,,,,,,,,,,,,,,,,,,,
1698692119.656430,1698692119.657740,31.000000,0.000000,4087.692383,4133.333496,4209.743652,4211.282227,4231.794922,0.000000,1.000000,21.000000,,,,0.000000,4.000000,4.000000,4.000000,4.000000,0.000000,66.666664,,,,,,,,,,,,,,,,,,,,,,,,,,,,,,,,
1698692119.664310,1698692119.665722,32.000000,0.000000,4095.384521,4135.384766,4209.230957,4196.922852,4231.794922,0.000000,1.000000,21.000000,,,,0.000000,4.000000,4.000000,4.000000,4.000000,0.000000,66.666664,,,,,,,,,,,,,,,,,,,,,,,,,,,,,,,,
1698692119.672191,1698692119.673704,33.000000,0.000000,4074.358887,4129.230957,4184.615234,4187.692383,4231.794922,0.000000,1.000000,21.000000,,,,0.000000,4.000000,4.000000,4.000000,4.000000,0.000000,66.666664,,,,,,,,,,,,,,,,,,,,,,,,,,,,,,,,
1698692119.680071,1698692119.681687,34.000000,0.000000,4085.128174,4121.025879,4184.102539,4191.282227,4231.794922,0.000000,1.000000,21.000000,,,,0.000000,4.000000,4.000000,4.000000,4.000000,0.000000,66.666664,,,,,,,,,,,,,,,,,,,,,,,,,,,,,,,,
1698692119.687951,1698692119.689669,35.000000,0.000000,4116.922852,4133.333496,4203.589844,4202.563965,4231.794922,0.000000,1.000000,21.000000,,,,0.000000,4.000000,4.000000,4.000000,4.000000,0.000000,66.666664,,,,,,,,,,,,,,,,,,,,,,,,,,,,,,,,
1698692119.695831,1698692119.697651,36.000000,0.000000,4098.974121,4153.846191,4194.871582,4192.307617,4231.794922,0.000000,1.000000,21.000000,,,,0.000000,4.000000,4.000000,4.000000,4.000000,0.000000,66.666664,,,,,,,,,,,,,,,,,,,,,,,,,,,,,,,,
1698692119.703712,1698692119.705632,37.000000,0.000000,4074.871826,4151.794922,4173.333496,4191.282227,4231.794922,0.000000,1.000000,21.000000,,,,0.000000,4.000000,4.000000,4.000000,4.000000,0.000000,66.666664,,,,,,,,,,,,,,,,,,,,,,,,,,,,,,,,
1698692119.711592,1698692119.713614,38.000000,0.000000,4065.128174,4108.717773,4151.282227,4187.692383,4231.794922,0.000000,1.000000,21.000000,,,,0.000000,4.000000,4.000000,4.000000,4.000000,0.000000,66.666664,,,,,,,,,,,,,,,,,,,,,,,,,,,,,,,,
1698692119.719472,1698692119.721596,39.000000,0.000000,4072.307617,4102.563965,4151.794922,4178.974121,4231.794922,0.000000,1.000000,21.000000,,,,0.000000,4.000000,4.000000,4.000000,4.000000,0.000000,66.666664,,,,,,,,,,,,,,,,,,,,,,,,,,,,,,,,
1698692119.727353,1698692119.729577,40.000000,0.000000,4082.564209,4129.230957,4168.717773,4182.051270,4231.794922,0.000000,1.000000,21.000000,,,,0.000000,4.000000,4.000000,4.000000,4.000000,0.000000,66.666664,,,,,,,,,,,,,,,,,,,,,,,,,,,,,,,,
1698692119.735233,1698692119.737559,41.000000,0.000000,4073.333252,4114.871582,4172.307617,4188.717773,4231.794922,0.000000,1.000000,21.000000,,,,0.000000,4.000000,4.000000,4.000000,4.000000,0.000000,66.666664,,,,,,,,,,,,,,,,,,,,,,,,,,,,,,,,
1698692119.743113,1698692119.745540,42.000000,0.000000,4056.410156,4104.615234,4162.563965,4177.436035,4231.794922,0.000000,1.000000,21.000000,,,,0.000000,4.000000,4.000000,4.000000,4.000000,0.000000,66.666664,,,,,,,,,,,,,,,,,,,,,,,,,,,,,,,,
1698692119.750993,1698692119.753521,43.000000,0.000000,4035.384521,4088.205078,4133.846191,4131.282227,4231.794922,0.000000,1.000000,21.000000,,,,0.000000,4.000000,4.000000,4.000000,4.000000,0.000000,66.666664,,,,,,,,,,,,,,,,,,,,,,,,,,,,,,,,
1698692119.758874,1698692119.761503,44.000000,0.000000,4043.076904,4075.897461,4129.743652,4125.641113,4232.307617,0.000000,1.000000,21.000000,,,,0.000000,4.000000,4.000000,4.000000,4.000000,0.000000,66.666664,,,,,,,,,,,,,,,,,,,,,,,,,,,,,,,,
1698692119.766754,1698692119.769484,45.000000,0.000000,4058.461426,4086.153809,4142.563965,4153.333496,4231.794922,0.000000,1.000000,21.000000,,,,0.000000,4.000000,4.000000,4.000000,4.000000,0.000000,66.666664,,,,,,,,88.755302,13.952391,1.839145,2.726286,1.175324,4.227546,1.747746,3.710073,1.851747,1.753060,13.422688,7.038881,4.585758,3.708090,1.003237,9.240253,5.717509,2.761186,3.177582,0.844674,0.005411,0.001810,0.005511,0.002438,0.001508
1698692119.774634,1698692119.777464,46.000000,0.000000,4052.820557,4082.051270,4130.256348,4133.846191,4231.794922,0.000000,1.000000,21.000000,,,,0.000000,4.000000,4.000000,4.000000,4.000000,0.000000,66.666664,,,,,,,,,,,,,,,,,,,,,,,,,,,,,,,,
1698692119.782514,1698692119.785445,47.000000,0.000000,4062.051270,4094.358887,4130.256348,4126.153809,4232.307617,0.000000,1.000000,21.000000,,,,0.000000,4.000000,4.000000,4.000000,4.000000,0.000000,66.666664,,,,,,,,,,,,,,,,,,,,,,,,,,,,,,,,
1698692119.790394,1698692119.793426,48.000000,0.000000,4060.512939,4094.358887,4129.743652,4137.948730,4231.794922,0.000000,1.000000,21.000000,,,,0.000000,4.000000,4.000000,4.000000,4.000000,0.000000,66.666664,,,,,,,,,,,,,,,,,,,,,,,,,,,,,,,,
1698692119.798275,1698692119.801407,49.000000,0.000000,4063.076904,4084.102539,4126.666504,4141.538574,4230.256348,0.000000,1.000000,21.000000,,,,0.000000,4.000000,4.000000,4.000000,4.000000,0.000000,66.666664,,,,,,,,,,,,,,,,,,,,,,,,,,,,,,,,
1698692119.806155,1698692119.809387,50.000000,0.000000,4090.256348,4094.358887,4124.615234,4154.358887,4231.282227,0.000000,1.000000,21.000000,,,,0.000000,4.000000,4.000000,4.000000,4.000000,0.000000,66.666664,,,,,,,,,,,,,,,,,,,,,,,,,,,,,,,,
1698692119.814035,1698692119.817368,51.000000,0.000000,4086.153809,4098.461426,4105.128418,4156.922852,4233.846191,0.000000,1.000000,21.000000,,,,0.000000,4.000000,4.000000,4.000000,4.000000,0.000000,66.666664,,,,,,,,,,,,,,,,,,,,,,,,,,,,,,,,
1698692119.821916,1698692119.825348,52.000000,0.000000,4068.205078,4094.358887,4105.128418,4155.384766,4233.333496,0.000000,1.000000,21.000000,,,,0.000000,4.000000,4.000000,4.000000,4.000000,0.000000,66.666664,,,,,,,,,,,,,,,,,,,,,,,,,,,,,,,,
1698692119.829796,1698692119.833329,53.000000,0.000000,4052.307617,4077.948730,4104.615234,4132.307617,4232.307617,0.000000,1.000000,21.000000,,,,0.000000,4.000000,4.000000,4.000000,4.000000,0.000000,66.666664,,,,,,,,,,,,,,,,,,,,,,,,,,,,,,,,
1698692119.837676,1698692119.841309,54.000000,0.000000,4051.794922,4080.000000,4101.025879,4118.974121,4232.307617,0.000000,1.000000,21.000000,,,,0.000000,4.000000,4.000000,4.000000,4.000000,0.000000,66.666664,,,,,,,,,,,,,,,,,,,,,,,,,,,,,,,,
1698692119.845556,1698692119.849290,55.000000,0.000000,4070.256348,4096.410156,4114.358887,4141.538574,4232.820313,0.000000,1.000000,21.000000,,,,0.000000,4.000000,4.000000,4.000000,4.000000,0.000000,66.666664,,,,,,,,,,,,,,,,,,,,,,,,,,,,,,,,
1698692119.853437,1698692119.857270,56.000000,0.000000,4043.589844,4069.743652,4104.615234,4124.615234,4232.307617,0.000000,1.000000,21.000000,,,,0.000000,4.000000,4.000000,4.000000,4.000000,0.000000,66.666664,,,,,,,,,,,,,,,,,,,,,,,,,,,,,,,,
1698692119.861317,1698692119.865251,57.000000,0.000000,4025.128174,4053.333252,4098.974121,4117.436035,4232.307617,0.000000,1.000000,21.000000,,,,0.000000,4.000000,4.000000,4.000000,4.000000,0.000000,66.666664,,,,,,,,,,,,,,,,,,,,,,,,,,,,,,,,
1698692119.869197,1698692119.873231,58.000000,0.000000,4052.820557,4073.846191,4110.256348,4146.153809,4232.307617,0.000000,1.000000,21.000000,,,,0.000000,4.000000,4.000000,4.000000,4.000000,0.000000,66.666664,,,,,,,,,,,,,,,,,,,,,,,,,,,,,,,,
1698692119.877077,1698692119.881212,59.000000,0.000000,4061.538574,4075.897461,4103.589844,4140.000000,4232.307617,0.000000,1.000000,21.000000,,,,0.000000,4.000000,4.000000,4.000000,4.000000,0.000000,66.666664,,,,,,,,,,,,,,,,,,,,,,,,,,,,,,,,
1698692119.884958,1698692119.889192,60.000000,0.000000,4030.256348,4053.333252,4073.333252,4109.743652,4232.307617,0.000000,1.000000,21.000000,,,,0.000000,4.000000,4.000000,4.000000,4.000000,0.000000,66.666664,,,,,,,,,,,,,,,,,,,,,,,,,,,,,,,,
1698692119.892838,1698692119.897172,61.000000,0.000000,3998.461426,4036.923096,4055.897461,4096.410156,4232.307617,0.000000,1.000000,21.000000,,,,0.000000,4.000000,4.000000,4.000000,4.000000,0.000000,66.666664,,,,,,,,78.009537,12.537336,2.171498,2.540759,1.074703,4.518892,2.192442,3.931919,2.130972,1.651572,14.661223,9.739568,5.718536,3.390912,1.009625,11.211064,7.474074,2.173758,2.599137,0.847442,0.003896,0.001773,0.004210,0.001434,0.000775
1698692119.900718,1698692119.904953,62.000000,0.000000,4026.153809,4063.589844,4087.179443,4120.000000,4232.307617,0.000000,1.000000,21.000000,,,,0.000000,4.000000,4.000000,4.000000,4.000000,0.000000,66.666664,,,,,,,,,,,,,,,,,,,,,,,,,,,,,,,,
1698692119.908598,1698692119.912933,63.000000,0.000000,4051.794922,4073.846191,4093.333252,4126.666504,4232.820313,0.000000,1.000000,21.000000,,,,0.000000,4.000000,4.000000,4.000000,4.000000,0.000000,66.666664,,,,,,,,,,,,,,,,,,,,,,,,,,,,,,,,
1698692119.916479,1698692119.920713,64.000000,0.000000,4047.179443,4047.179443,4070.256348,4109.743652,4232.307617,450.000000,1.000000,21.000000,,,,0.000000,4.000000,4.000000,4.000000,4.000000,0.000000,66.666664,,,,,,,,,,,,,,,,,,,,,,,,,,,,,,,,
1698692119.924359,1698692119.928694,65.000000,0.000000,4064.615479,4055.384521,4090.769287,4124.102539,4231.282227,450.000000,1.000000,21.000000,,,,0.000000,4.000000,4.000000,4.000000,4.000000,0.000000,66.666664,,,,,,,,,,,,,,,,,,,,,,,,,,,,,,,,
1698692119.932239,1698692119.936474,66.000000,0.000000,4066.153809,4071.794922,4108.205078,4134.871582,4230.769043,1023.000000,1.000000,21.000000,,,,0.000000,4.000000,4.000000,4.000000,4.000000,0.000000,66.666664,,,,,,,,,,,,,,,,,,,,,,,,,,,,,,,,
1698692119.940119,1698692119.944454,67.000000,0.000000,4048.205078,4071.794922,4093.846191,4120.512695,4231.794922,450.000000,1.000000,21.000000,,,,0.000000,4.000000,4.000000,4.000000,4.000000,0.000000,66.666664,,,,,,,,,,,,,,,,,,,,,,,,,,,,,,,,
1698692119.948000,1698692119.952235,68.000000,0.000000,4033.333252,4071.794922,4076.410156,4105.641113,4232.307617,309.000000,1.000000,21.000000,,,,0.000000,4.000000,2.000000,4.000000,4.000000,0.000000,50.000000,,,,,,,,,,,,,,,,,,,,,,,,,,,,,,,,
1698692119.955880,1698692119.960215,69.000000,0.000000,4038.974365,4090.256348,4093.846191,4119.487305,4231.282227,450.000000,1.000000,21.000000,,,,0.000000,4.000000,2.000000,4.000000,4.000000,0.000000,50.000000,,,,,,,,,,,,,,,,,,,,,,,,,,,,,,,,
1698692119.963760,1698692119.968195,70.000000,0.000000,4066.666748,4100.512695,4116.922852,4136.410156,4230.256348,309.000000,1.000000,21.000000,,,,0.000000,4.000000,2.000000,2.000000,4.000000,0.000000,33.333332,,,,,,,,,,,,,,,,,,,,,,,,,,,,,,,,
1698692119.971640,1698692119.976176,71.000000,0.000000,4065.128174,4069.743652,4092.307617,4107.692383,4233.846191,450.000000,1.000000,21.000000,,,,0.000000,4.000000,2.000000,2.000000,4.000000,0.000000,33.333332,,,,,,,,,,,,,,,,,,,,,,,,,,,,,,,,
1698692119.979521,1698692119.983956,72.000000,0.000000,4068.205078,4065.641113,4093.846191,4110.256348,4230.769043,450.000000,1.000000,21.000000,,,,0.000000,4.000000,2.000000,2.000000,4.000000,0.000000,33.333332,,,,,,,,,,,,,,,,,,,,,,,,,,,,,,,,
1698692119.987401,1698692119.991936,73.000000,0.000000,4087.692383,4086.153809,4119.487305,4146.666504,4222.051270,1023.000000,1.000000,21.000000,,,,0.000000,4.000000,2.000000,2.000000,4.000000,0.000000,33.333332,,,,,,,,,,,,,,,,,,,,,,,,,,,,,,,,
1698692119.995281,1698692119.999717,74.000000,0.000000,4069.230713,4069.743652,4096.410156,4136.922852,4226.153809,450.000000,1.000000,21.000000,,,,0.000000,4.000000,2.000000,2.000000,4.000000,0.000000,33.333332,,,,,,,,,,,,,,,,,,,,,,,,,,,,,,,,
1698692120.003161,1698692120.007697,75.000000,0.000000,4053.846191,4059.487061,4080.512939,4116.410156,4234.358887,0.000000,1.000000,21.000000,,,,0.000000,4.000000,2.000000,2.000000,4.000000,0.000000,33.333332,,,,,,,,,,,,,,,,,,,,,,,,,,,,,,,,
1698692120.011042,1698692120.015477,76.000000,0.000000,4062.051270,4063.589844,4085.128174,4101.538574,4231.282227,450.000000,1.000000,21.000000,,,,0.000000,4.000000,2.000000,2.000000,4.000000,0.000000,33.333332,,,,,,,,,,,,,,,,,,,,,,,,,,,,,,,,
1698692120.018922,1698692120.023258,77.000000,0.000000,4068.718018,4065.641113,4085.128174,4093.846191,4228.717773,450.000000,1.000000,21.000000,,,,0.000000,4.000000,2.000000,2.000000,4.000000,0.000000,33.333332,1.000000,0.000000,1.000000,0.000000,0.000000,0.000000,0.000000,67.087227,11.961028,2.425701,2.320910,0.985051,5.287600,2.689313,3.923898,2.406241,1.515411,15.698408,12.309871,6.324530,2.878037,0.995355,14.188472,9.437678,1.661343,2.219976,0.899831,0.003530,0.001793,0.003406,0.001164,0.000536
1698692120.026802,1698692120.031038,78.000000,0.000000,4064.615479,4067.692383,4077.435791,4088.205078,4233.333496,450.000000,1.000000,21.000000,,,,0.000000,4.000000,2.000000,2.000000,4.000000,0.000000,33.333332,,,,,,,,,,,,,,,,,,,,,,,,,,,,,,,,
1698692120.034682,1698692120.038818,79.000000,0.000000,4056.923096,4053.333252,4063.076904,4074.871826,4232.307617,0.000000,1.000000,21.000000,,,,0.000000,4.000000,2.000000,2.000000,4.000000,0.000000,33.333332,,,,,,,,,,,,,,,,,,,,,,,,,,,,,,,,
1698692120.042563,1698692120.046599,80.000000,0.000000,4065.641113,4053.333252,4073.846191,4089.743652,4230.256348,450.000000,1.000000,21.000000,,,,0.000000,4.000000,2.000000,2.000000,4.000000,0.000000,33.333332,,,,,,,,,,,,,,,,,,,,,,,,,,,,,,,,
1698692120.050443,1698692120.054379,81.000000,0.000000,4061.538574,4067.692383,4085.128174,4102.563965,4233.333496,450.000000,1.000000,21.000000,,,,0.000000,4.000000,2.000000,2.000000,4.000000,0.000000,33.333332,,,,,,,,,,,,,,,,,,,,,,,,,,,,,,,,
1698692120.058323,1698692120.062159,82.000000,0.000000,4066.153809,4082.051270,4087.179443,4106.153809,4232.820313,450.000000,1.000000,21.000000,,,,0.000000,4.000000,2.000000,2.000000,4.000000,0.000000,33.333332,,,,,,,,,,,,,,,,,,,,,,,,,,,,,,,,
1698692120.066203,1698692120.069940,83.000000,0.000000,4074.358887,4082.051270,4084.615479,4104.615234,4228.717773,0.000000,1.000000,21.000000,,,,0.000000,4.000000,2.000000,2.000000,4.000000,0.000000,33.333332,,,,,,,,,,,,,,,,,,,,,,,,,,,,,,,,
1698692120.074084,1698692120.077720,84.000000,0.000000,4052.820557,4059.487061,4069.230713,4084.615479,4227.179688,450.000000,1.000000,21.000000,,,,0.000000,4.000000,2.000000,2.000000,4.000000,0.000000,33.333332,,,,,,,,,,,,,,,,,,,,,,,,,,,,,,,,
1698692120.081964,1698692120.085500,85.000000,0.000000,4050.256348,4051.281982,4056.923096,4080.512939,4231.282227,450.000000,1.000000,21.000000,,,,0.000000,4.000000,2.000000,2.000000,4.000000,0.000000,33.333332,,,,,,,,,,,,,,,,,,,,,,,,,,,,,,,,
1698692120.089844,1698692120.093281,86.000000,0.000000,4051.281982,4051.281982,4038.461426,4067.692383,4233.333496,450.000000,1.000000,21.000000,,,,0.000000,4.000000,2.000000,2.000000,4.000000,0.000000,33.333332,,,,,,,,,,,,,,,,,,,,,,,,,,,,,,,,
1698692120.097724,1698692120.101061,87.000000,0.000000,4062.051270,4073.846191,4048.205078,4073.333252,4229.230957,0.000000,1.000000,21.000000,,,,0.000000,4.000000,2.000000,2.000000,4.000000,0.000000,33.333332,,,,,,,,,,,,,,,,,,,,,,,,,,,,,,,,
1698692120.105605,1698692120.108841,88.000000,0.000000,4088.718018,4098.461426,4076.923096,4116.922852,4228.205078,450.000000,1.000000,21.000000,,,,0.000000,4.000000,2.000000,2.000000,4.000000,0.000000,33.333332,,,,,,,,,,,,,,,,,,,,,,,,,,,,,,,,
1698692120.113485,1698692120.116622,89.000000,0.000000,4079.487061,4061.538574,4067.692383,4113.846191,4232.307617,450.000000,1.000000,21.000000,,,,0.000000,4.000000,2.000000,2.000000,4.000000,0.000000,33.333332,,,,,,,,,,,,,,,,,,,,,,,,,,,,,,,,
1698692120.121365,1698692120.124402,90.000000,0.000000,4074.358887,4057.435791,4067.179443,4096.922852,4226.153809,450.000000,1.000000,21.000000,,,,0.000000,4.000000,2.000000,2.000000,4.000000,0.000000,33.333332,,,,,,,,,,,,,,,,,,,,,,,,,,,,,,,,
1698692120.129245,1698692120.132382,91.000000,0.000000,4093.333252,4094.358887,4087.692383,4113.846191,4217.948730,0.000000,1.000000,21.000000,,,,0.000000,4.000000,2.000000,2.000000,4.000000,0.000000,33.333332,,,,,,,,,,,,,,,,,,,,,,,,,,,,,,,,
1698692120.137126,1698692120.140363,92.000000,0.000000,4100.512695,4088.205078,4092.307617,4121.538574,4225.641113,450.000000,1.000000,21.000000,,,,0.000000,4.000000,2.000000,2.000000,4.000000,0.000000,33.333332,,,,,,,,,,,,,,,,,,,,,,,,,,,,,,,,
1698692120.145006,1698692120.148143,93.000000,0.000000,4082.564209,4061.538574,4075.897461,4099.487305,4234.871582,450.000000,1.000000,21.000000,,,,0.000000,4.000000,2.000000,2.000000,4.000000,0.000000,33.333332,,,,,,,,57.659386,11.932770,2.473586,2.095960,0.952031,6.154683,3.073814,3.639083,2.586885,1.382484,15.376146,13.905946,6.194008,2.273602,0.976190,16.377289,10.887865,1.275289,2.056358,0.996417,0.003254,0.001923,0.002554,0.000994,0.000479
1698692120.152886,1698692120.155923,94.000000,0.000000,4055.897461,4063.589844,4061.025635,4079.487061,4230.256348,450.000000,1.000000,21.000000,,,,0.000000,4.000000,2.000000,2.000000,4.000000,0.000000,33.333332,,,,,,,,,,,,,,,,,,,,,,,,,,,,,,,,
1698692120.160766,1698692120.163703,95.000000,0.000000,4067.692383,4092.307617,4075.384521,4092.307617,4226.153809,0.000000,1.000000,21.000000,,,,0.000000,4.000000,2.000000,2.000000,4.000000,0.000000,33.333332,,,,,,,,,,,,,,,,,,,,,,,,,,,,,,,,
1698692120.168647,1698692120.171484,96.000000,0.000000,4075.384521,4075.897461,4072.307617,4086.153809,4234.871582,450.000000,1.000000,21.000000,,,,0.000000,4.000000,2.000000,2.000000,4.000000,0.000000,33.333332,,,,,,,,,,,,,,,,,,,,,,,,,,,,,,,,
1698692120.176527,1698692120.179264,97.000000,0.000000,4060.512939,4057.435791,4052.820557,4067.692383,4234.358887,450.000000,1.000000,21.000000,,,,0.000000,4.000000,2.000000,2.000000,4.000000,0.000000,33.333332,,,,,,,,,,,,,,,,,,,,,,,,,,,,,,,,
1698692120.184407,1698692120.187044,98.000000,0.000000,4075.384521,4075.897461,4062.564209,4083.589844,4218.461426,450.000000,1.000000,21.000000,,,,0.000000,4.000000,2.000000,2.000000,4.000000,0.000000,33.333332,,,,,,,,,,,,,,,,,,,,,,,,,,,,,,,,
1698692120.192288,1698692120.195025,99.000000,0.000000,4087.692383,4063.589844,4069.230713,4091.794922,4217.948730,0.000000,1.000000,21.000000,,,,0.000000,4.000000,2.000000,2.000000,4.000000,0.000000,33.333332,,,,,,,,,,,,,,,,,,,,,,,,,,,,,,,,
1698692120.200168,1698692120.202805,100.000000,0.000000,4085.641113,4049.230713,4070.769287,4103.589844,4234.358887,450.000000,1.000000,21.000000,,,,0.000000,4.000000,2.000000,2.000000,4.000000,0.000000,33.333332,,,,,,,,,,,,,,,,,,,,,,,,,,,,,,,,
1698692120.208048,1698692120.210785,101.000000,0.000000,4076.923096,4053.333252,4065.641113,4108.205078,4228.717773,450.000000,1.000000,21.000000,,,,0.000000,4.000000,2.000000,2.000000,4.000000,0.000000,33.333332,,,,,,,,,,,,,,,,,,,,,,,,,,,,,,,,
1698692120.215928,1698692120.218566,102.000000,0.000000,4083.589844,4073.846191,4070.256348,4089.230713,4212.307617,450.000000,1.000000,21.000000,,,,0.000000,4.000000,2.000000,2.000000,4.000000,0.000000,33.333332,,,,,,,,,,,,,,,,,,,,,,,,,,,,,,,,
1698692120.223808,1698692120.226546,103.000000,0.000000,4122.563965,4116.922852,4102.051270,4106.153809,4224.102539,0.000000,1.000000,21.000000,,,,0.000000,4.000000,2.000000,2.000000,4.000000,0.000000,33.333332,,,,,,,,,,,,,,,,,,,,,,,,,,,,,,,,
1698692120.231689,1698692120.234326,104.000000,0.000000,4116.922852,4118.974121,4105.128418,4126.666504,4240.000000,450.000000,1.000000,21.000000,,,,0.000000,4.000000,2.000000,2.000000,4.000000,0.000000,33.333332,,,,,,,,,,,,,,,,,,,,,,,,,,,,,,,,
1698692120.239569,1698692120.242307,105.000000,0.000000,4091.281982,4094.358887,4099.487305,4108.205078,4227.179688,450.000000,1.000000,21.000000,,,,0.000000,4.000000,2.000000,2.000000,4.000000,0.000000,33.333332,,,,,,,,,,,,,,,,,,,,,,,,,,,,,,,,
1698692120.247449,1698692120.250087,106.000000,0.000000,4106.153809,4100.512695,4107.179688,4092.307617,4212.820313,450.000000,1.000000,21.000000,,,,0.000000,4.000000,2.000000,2.000000,4.000000,0.000000,33.333332,,,,,,,,,,,,,,,,,,,,,,,,,,,,,,,,
1698692120.255329,1698692120.258067,107.000000,0.000000,4121.538574,4106.666504,4106.666504,4105.128418,4224.102539,0.000000,1.000000,21.000000,,,,0.000000,4.000000,2.000000,2.000000,4.000000,0.000000,33.333332,,,,,,,,,,,,,,,,,,,,,,,,,,,,,,,,
1698692120.263210,1698692120.265848,108.000000,0.000000,4114.358887,4092.307617,4104.102539,4118.461426,4235.384766,450.000000,1.000000,21.000000,,,,0.000000,4.000000,2.000000,2.000000,4.000000,0.000000,33.333332,,,,,,,,,,,,,,,,,,,,,,,,,,,,,,,,
1698692120.271090,1698692120.273828,109.000000,0.000000,4095.384521,4069.743652,4097.948730,4102.051270,4225.641113,450.000000,1.000000,21.000000,,,,0.000000,4.000000,2.000000,2.000000,4.000000,0.000000,33.333332,,,,,,,,46.071648,11.937033,2.255334,1.893189,0.997516,6.168259,3.224900,3.083998,2.590277,1.296888,13.563807,13.945436,5.374274,1.710452,0.978435,17.926109,11.267035,1.036701,2.029230,1.124566,0.003317,0.002512,0.002386,0.001214,0.001137
1698692120.278970,1698692120.281608,110.000000,0.000000,4110.256348,4086.153809,4112.307617,4118.461426,4221.025879,450.000000,1.000000,21.000000,,,,0.000000,4.000000,2.000000,2.000000,4.000000,0.000000,33.333332,,,,,,,,,,,,,,,,,,,,,,,,,,,,,,,,
1698692120.286851,1698692120.289589,111.000000,0.000000,4127.179688,4114.871582,4121.538574,4144.615234,4232.307617,0.000000,1.000000,21.000000,,,,0.000000,4.000000,2.000000,2.000000,4.000000,0.000000,33.333332,,,,,,,,,,,,,,,,,,,,,,,,,,,,,,,,
1698692120.294731,1698692120.297369,112.000000,0.000000,4109.743652,4116.922852,4101.025879,4119.487305,4236.410156,450.000000,1.000000,21.000000,,,,0.000000,4.000000,2.000000,2.000000,4.000000,0.000000,33.333332,,,,,,,,,,,,,,,,,,,,,,,,,,,,,,,,
1698692120.302611,1698692120.305349,113.000000,0.000000,4115.897461,4137.436035,4107.692383,4114.358887,4227.179688,450.000000,1.000000,21.000000,,,,0.000000,4.000000,2.000000,2.000000,4.000000,0.000000,33.333332,,,,,,,,,,,,,,,,,,,,,,,,,,,,,,,,
1698692120.310491,1698692120.313130,114.000000,0.000000,4134.871582,4153.846191,4129.743652,4130.256348,4215.384766,450.000000,1.000000,21.000000,,,,0.000000,4.000000,2.000000,2.000000,4.000000,0.000000,33.333332,,,,,,,,,,,,,,,,,,,,,,,,,,,,,,,,
1698692120.318372,1698692120.321110,115.000000,0.000000,4151.794922,4145.641113,4141.538574,4145.641113,4216.410156,0.000000,1.000000,21.000000,,,,0.000000,4.000000,2.000000,2.000000,4.000000,0.000000,33.333332,,,,,,,,,,,,,,,,,,,,,,,,,,,,,,,,
1698692120.326252,1698692120.328890,116.000000,0.000000,4164.615234,4141.538574,4142.563965,4160.000000,4230.256348,450.000000,1.000000,21.000000,,,,0.000000,4.000000,2.000000,2.000000,4.000000,0.000000,33.333332,,,,,,,,,,,,,,,,,,,,,,,,,,,,,,,,
1698692120.334132,1698692120.336870,117.000000,0.000000,4155.897461,4143.589844,4134.871582,4148.717773,4231.282227,450.000000,1.000000,21.000000,,,,0.000000,4.000000,2.000000,2.000000,4.000000,0.000000,33.333332,,,,,,,,,,,,,,,,,,,,,,,,,,,,,,,,
1698692120.342012,1698692120.344651,118.000000,0.000000,4147.692383,4155.897461,4140.512695,4150.769043,4215.897461,450.000000,1.000000,21.000000,,,,0.000000,4.000000,2.000000,2.000000,4.000000,0.000000,33.333332,,,,,,,,,,,,,,,,,,,,,,,,,,,,,,,,
1698692120.349893,1698692120.352431,119.000000,0.000000,4122.051270,4137.436035,4137.948730,4157.436035,4218.974121,0.000000,1.000000,21.000000,,,,0.000000,4.000000,2.000000,2.000000,4.000000,0.000000,33.333332,,,,,,,,,,,,,,,,,,,,,,,,,,,,,,,,
1698692120.357773,1698692120.360211,120.000000,0.000000,4105.641113,4118.974121,4143.077148,4153.333496,4230.769043,450.000000,1.000000,21.000000,,,,0.000000,4.000000,2.000000,2.000000,4.000000,0.000000,33.333332,,,,,,,,,,,,,,,,,,,,,,,,,,,,,,,,
1698692120.365653,1698692120.367991,121.000000,0.000000,4127.179688,4139.487305,4160.512695,4146.666504,4227.179688,450.000000,1.000000,21.000000,,,,0.000000,4.000000,2.000000,2.000000,4.000000,0.000000,33.333332,,,,,,,,,,,,,,,,,,,,,,,,,,,,,,,,
1698692120.373533,1698692120.375772,122.000000,0.000000,4125.641113,4149.743652,4150.256348,4133.846191,4216.922852,450.000000,1.000000,21.000000,,,,0.000000,4.000000,2.000000,2.000000,4.000000,0.000000,33.333332,,,,,,,,,,,,,,,,,,,,,,,,,,,,,,,,
1698692120.381414,1698692120.383552,123.000000,0.000000,4108.205078,4129.230957,4137.948730,4122.563965,4216.922852,0.000000,1.000000,21.000000,,,,0.000000,4.000000,2.000000,2.000000,4.000000,0.000000,33.333332,,,,,,,,,,,,,,,,,,,,,,,,,,,,,,,,
1698692120.389294,1698692120.391332,124.000000,0.000000,4084.102539,4092.307617,4113.333496,4080.000000,4224.102539,450.000000,1.000000,21.000000,,,,0.000000,4.000000,2.000000,2.000000,4.000000,0.000000,33.333332,,,,,,,,,,,,,,,,,,,,,,,,,,,,,,,,
1698692120.397174,1698692120.399113,125.000000,0.000000,4067.179443,4071.794922,4091.281982,4063.076904,4233.333496,450.000000,1.000000,21.000000,,,,0.000000,4.000000,2.000000,2.000000,4.000000,0.000000,33.333332,,,,,,,,36.164402,11.370138,1.870979,1.737788,1.109514,6.574832,3.111644,2.372379,2.404856,1.285568,11.667882,12.384760,4.197799,1.295702,1.019466,17.733196,10.396265,1.053564,2.038822,1.263940,0.004580,0.004233,0.004962,0.002492,0.004854
1698692120.405054,1698692120.406893,126.000000,0.000000,4070.769287,4086.153809,4097.948730,4095.384521,4229.743652,450.000000,1.000000,21.000000,,,,0.000000,4.000000,2.000000,2.000000,4.000000,0.000000,33.333332,,,,,,,,,,,,,,,,,,,,,,,,,,,,,,,,
1698692120.412935,1698692120.414673,127.000000,0.000000,4062.564209,4080.000000,4085.641113,4091.281982,4224.615234,229.000000,1.000000,21.000000,,,,0.000000,4.000000,2.000000,2.000000,4.000000,0.000000,33.333332,,,,,,,,,,,,,,,,,,,,,,,,,,,,,,,,
1698692120.420815,1698692120.422454,0.000000,0.000000,4063.589844,4071.794922,4074.871826,4086.153809,4231.282227,450.000000,1.000000,21.000000,,,,0.000000,4.000000,2.000000,2.000000,4.000000,0.000000,33.333332,,,,,,,,,,,,,,,,,,,,,,,,,,,,,,,,
1698692120.428695,1698692120.430234,1.000000,0.000000,4057.435791,4071.794922,4076.923096,4094.358887,4229.230957,450.000000,1.000000,21.000000,,,,0.000000,4.000000,2.000000,2.000000,4.000000,0.000000,33.333332,,,,,,,,,,,,,,,,,,,,,,,,,,,,,,,,
1698692120.436575,1698692120.438014,2.000000,0.000000,4049.743652,4061.538574,4083.076904,4097.436035,4213.333496,1023.000000,1.000000,21.000000,,,,0.000000,4.000000,2.000000,2.000000,4.000000,0.000000,33.333332,,,,,,,,,,,,,,,,,,,,,,,,,,,,,,,,
1698692120.444456,1698692120.445995,3.000000,0.000000,4064.102539,4065.641113,4087.692383,4098.974121,4220.512695,450.000000,1.000000,21.000000,,,,0.000000,4.000000,2.000000,2.000000,4.000000,0.000000,33.333332,,,,,,,,,,,,,,,,,,,,,,,,,,,,,,,,
1698692120.452336,1698692120.453975,4.000000,0.000000,4049.230713,4061.538574,4055.384521,4057.948730,4234.871582,1023.000000,1.000000,21.000000,,,,0.000000,4.000000,4.000000,2.000000,4.000000,0.000000,50.000000,,,,,,,,,,,,,,,,,,,,,,,,,,,,,,,,
1698692120.460216,1698692120.461755,5.000000,0.000000,4036.410156,4063.589844,4036.410156,4021.538574,4224.615234,450.000000,1.000000,21.000000,,,,0.000000,4.000000,4.000000,2.000000,4.000000,0.000000,50.000000,,,,,,,,,,,,,,,,,,,,,,,,,,,,,,,,
1698692120.468096,1698692120.469736,6.000000,0.000000,4053.846191,4075.897461,4043.589844,4028.718018,4213.846191,1023.000000,1.000000,21.000000,,,,0.000000,4.000000,4.000000,4.000000,4.000000,0.000000,66.666664,,,,,,,,,,,,,,,,,,,,,,,,,,,,,,,,
1698692120.475977,1698692120.477516,7.000000,0.000000,4069.743652,4084.102539,4052.820557,4033.846191,4220.512695,450.000000,1.000000,21.000000,,,,0.000000,4.000000,4.000000,4.000000,4.000000,0.000000,66.666664,,,,,,,,,,,,,,,,,,,,,,,,,,,,,,,,
1698692120.483857,1698692120.485296,8.000000,0.000000,4072.820557,4086.153809,4072.307617,4041.538574,4222.563965,450.000000,1.000000,21.000000,,,,0.000000,4.000000,4.000000,4.000000,4.000000,0.000000,66.666664,,,,,,,,,,,,,,,,,,,,,,,,,,,,,,,,
1698692120.491737,1698692120.493077,9.000000,0.000000,4064.615479,4065.641113,4079.487061,4061.025635,4218.461426,1023.000000,1.000000,21.000000,,,,0.000000,4.000000,4.000000,4.000000,4.000000,0.000000,66.666664,,,,,,,,,,,,,,,,,,,,,,,,,,,,,,,,
1698692120.499617,1698692120.500857,10.000000,0.000000,4077.948730,4073.846191,4074.358887,4080.512939,4217.948730,450.000000,1.000000,21.000000,,,,0.000000,4.000000,4.000000,4.000000,4.000000,0.000000,66.666664,,,,,,,,,,,,,,,,,,,,,,,,,,,,,,,,
1698692120.507498,1698692120.508837,11.000000,0.000000,4090.256348,4073.846191,4064.102539,4083.589844,4220.512695,0.000000,1.000000,21.000000,,,,0.000000,4.000000,4.000000,4.000000,4.000000,0.000000,66.666664,,,,,,,,,,,,,,,,,,,,,,,,,,,,,,,,
1698692120.515378,1698692120.516817,12.000000,0.000000,4093.846191,4065.641113,4069.230713,4093.333252,4220.000000,450.000000,1.000000,21.000000,,,,0.000000,4.000000,4.000000,4.000000,4.000000,0.000000,66.666664,,,,,,,,,,,,,,,,,,,,,,,,,,,,,,,,
1698692120.523258,1698692120.524798,13.000000,0.000000,4102.563965,4102.563965,4088.205078,4109.230957,4219.487305,450.000000,1.000000,21.000000,,,,0.000000,4.000000,4.000000,4.000000,4.000000,0.000000,66.666664,1.000000,16.666666,2.000000,1.000000,1.000000,1.000000,0.000000,26.726995,9.933554,1.519520,1.640201,1.251732,6.268139,2.828890,1.677194,2.076663,1.354095,9.068737,9.755762,3.060518,1.067259,1.095293,16.244881,8.595543,1.335984,2.026475,1.390865,0.007340,0.008576,0.013402,0.006154,0.018454
1698692120.531138,1698692120.532578,14.000000,0.000000,4087.692383,4112.820313,4073.333252,4088.205078,4223.589844,450.000000,1.000000,21.000000,,,,0.000000,4.000000,4.000000,4.000000,4.000000,0.000000,66.666664,,,,,,,,,,,,,,,,,,,,,,,,,,,,,,,,
1698692120.539019,1698692120.540558,15.000000,0.000000,4095.897461,4106.666504,4064.102539,4082.564209,4225.641113,0.000000,1.000000,21.000000,,,,0.000000,4.000000,4.000000,4.000000,4.000000,0.000000,66.666664,,,,,,,,,,,,,,,,,,,,,,,,,,,,,,,,
1698692120.546899,1698692120.548339,16.000000,0.000000,4117.436035,4112.820313,4071.794922,4103.589844,4220.000000,0.000000,1.000000,21.000000,,,,0.000000,4.000000,4.000000,4.000000,4.000000,0.000000,66.666664,,,,,,,,,,,,,,,,,,,,,,,,,,,,,,,,
1698692120.554779,1698692120.556319,17.000000,0.000000,4105.128418,4094.358887,4075.384521,4105.128418,4217.948730,0.000000,1.000000,21.000000,,,,0.000000,4.000000,4.000000,4.000000,4.000000,0.000000,66.666664,,,,,,,,,,,,,,,,,,,,,,,,,,,,,,,,
1698692120.562659,1698692120.564099,18.000000,0.000000,4115.897461,4086.153809,4095.897461,4106.153809,4221.025879,0.000000,1.000000,21.000000,,,,0.000000,4.000000,4.000000,4.000000,4.000000,0.000000,66.666664,,,,,,,,,,,,,,,,,,,,,,,,,,,,,,,,
1698692120.570540,1698692120.572080,19.000000,0.000000,4136.922852,4100.512695,4096.922852,4093.846191,4222.563965,0.000000,1.000000,21.000000,,,,0.000000,4.000000,4.000000,4.000000,4.000000,0.000000,66.666664,,,,,,,,,,,,,,,,,,,,,,,,,,,,,,,,
1698692120.578420,1698692120.580060,20.000000,0.000000,4145.128418,4129.230957,4101.025879,4107.692383,4220.512695,0.000000,1.000000,21.000000,,,,0.000000,4.000000,4.000000,4.000000,4.000000,0.000000,66.666664,,,,,,,,,,,,,,,,,,,,,,,,,,,,,,,,
1698692120.586300,1698692120.588040,21.000000,0.000000,4152.820313,4139.487305,4125.128418,4152.307617,4219.487305,0.000000,1.000000,21.000000,,,,0.000000,4.000000,4.000000,4.000000,4.000000,0.000000,66.666664,,,,,,,,,,,,,,,,,,,,,,,,,,,,,,,,
1698692120.594180,1698692120.596021,22.000000,0.000000,4152.307617,4137.436035,4128.717773,4156.922852,4219.487305,0.000000,1.000000,21.000000,,,,0.000000,4.000000,4.000000,4.000000,4.000000,0.000000,66.666664,,,,,,,,,,,,,,,,,,,,,,,,,,,,,,,,
1698692120.602061,1698692120.604001,23.000000,0.000000,4161.538574,4151.794922,4114.871582,4145.128418,4219.487305,0.000000,1.000000,21.000000,,,,0.000000,4.000000,4.000000,4.000000,4.000000,0.000000,66.666664,,,,,,,,,,,,,,,,,,,,,,,,,,,,,,,,
1698692120.609941,1698692120.611781,24.000000,0.000000,4155.897461,4135.384766,4090.256348,4131.794922,4218.974121,0.000000,1.000000,21.000000,,,,0.000000,4.000000,4.000000,4.000000,4.000000,0.000000,66.666664,,,,,,,,,,,,,,,,,,,,,,,,,,,,,,,,
1698692120.617821,1698692120.619762,25.000000,0.000000,4146.153809,4121.025879,4094.871826,4128.205078,4220.000000,0.000000,1.000000,21.000000,,,,0.000000,4.000000,4.000000,4.000000,4.000000,0.000000,66.666664,,,,,,,,,,,,,,,,,,,,,,,,,,,,,,,,
1698692120.625702,1698692120.627542,26.000000,0.000000,4148.205078,4131.282227,4112.307617,4130.256348,4219.487305,0.000000,1.000000,21.000000,,,,0.000000,4.000000,4.000000,4.000000,4.000000,0.000000,66.666664,,,,,,,,,,,,,,,,,,,,,,,,,,,,,,,,
1698692120.633582,1698692120.635522,27.000000,0.000000,4132.307617,4118.974121,4092.307617,4109.230957,4217.948730,0.000000,1.000000,21.000000,,,,0.000000,4.000000,4.000000,4.000000,4.000000,0.000000,66.666664,,,,,,,,,,,,,,,,,,,,,,,,,,,,,,,,
1698692120.641462,1698692120.643303,28.000000,0.000000,4130.769043,4121.025879,4080.512939,4105.641113,4218.461426,0.000000,1.000000,21.000000,,,,0.000000,4.000000,4.000000,4.000000,4.000000,0.000000,66.666664,,,,,,,,,,,,,,,,,,,,,,,,,,,,,,,,
1698692120.649342,1698692120.651283,29.000000,0.000000,4145.128418,4135.384766,4097.436035,4116.922852,4219.487305,0.000000,1.000000,21.000000,,,,0.000000,4.000000,4.000000,4.000000,4.000000,0.000000,66.666664,,,,,,,,19.115740,7.857407,1.369414,1.593349,1.380119,6.340043,2.543066,1.226444,1.707943,1.486327,7.071051,6.885094,2.304229,0.999689,1.176870,13.283050,6.437179,1.893599,1.972253,1.484858,0.013532,0.017308,0.029922,0.014608,0.051911
1698692120.657222,1698692120.659063,30.000000,0.000000,4164.615234,4149.743652,4127.179688,4134.871582,4220.000000,0.000000,1.000000,21.000000,,,,0.000000,4.000000,4.000000,4.000000,4.000000,0.000000,66.666664,,,,,,,,,,,,,,,,,,,,,,,,,,,,,,,,
1698692120.665103,1698692120.667043,31.000000,0.000000,4172.307617,4153.846191,4130.769043,4151.794922,4220.512695,0.000000,1.000000,21.000000,,,,0.000000,4.000000,4.000000,4.000000,4.000000,0.000000,66.666664,,,,,,,,,,,,,,,,,,,,,,,,,,,,,,,,
1698692120.672983,1698692120.674824,32.000000,0.000000,4152.820313,4133.333496,4108.717773,4143.589844,4220.000000,0.000000,1.000000,21.000000,,,,0.000000,4.000000,4.000000,4.000000,4.000000,0.000000,66.666664,,,,,,,,,,,,,,,,,,,,,,,,,,,,,,,,
1698692120.680863,1698692120.682604,33.000000,0.000000,4158.461426,4137.436035,4116.922852,4149.743652,4218.974121,0.000000,1.000000,21.000000,,,,0.000000,4.000000,4.000000,4.000000,4.000000,0.000000,66.666664,,,,,,,,,,,,,,,,,,,,,,,,,,,,,,,,
1698692120.688743,1698692120.690384,34.000000,0.000000,4166.666504,4151.794922,4129.743652,4160.512695,4219.487305,0.000000,1.000000,21.000000,,,,0.000000,4.000000,4.000000,4.000000,4.000000,0.000000,66.666664,,,,,,,,,,,,,,,,,,,,,,,,,,,,,,,,
1698692120.696624,1698692120.698165,35.000000,0.000000,4158.974121,4145.641113,4127.179688,4142.051270,4218.461426,0.000000,1.000000,21.000000,,,,0.000000,4.000000,4.000000,4.000000,4.000000,0.000000,66.666664,,,,,,,,,,,,,,,,,,,,,,,,,,,,,,,,
1698692120.704504,1698692120.705945,36.000000,0.000000,4160.512695,4135.384766,4130.256348,4123.589844,4219.487305,0.000000,1.000000,21.000000,,,,0.000000,4.000000,4.000000,4.000000,4.000000,0.000000,66.666664,,,,,,,,,,,,,,,,,,,,,,,,,,,,,,,,
1698692120.712384,1698692120.713725,37.000000,0.000000,4154.871582,4127.179688,4128.717773,4123.589844,4220.512695,0.000000,1.000000,21.000000,,,,0.000000,4.000000,4.000000,4.000000,4.000000,0.000000,66.666664,,,,,,,,,,,,,,,,,,,,,,,,,,,,,,,,
1698692120.720265,1698692120.721505,38.000000,0.000000,4172.820313,4147.692383,4147.692383,4147.692383,4216.410156,0.000000,1.000000,21.000000,,,,0.000000,4.000000,4.000000,4.000000,4.000000,0.000000,66.666664,,,,,,,,,,,,,,,,,,,,,,,,,,,,,,,,
1698692120.728145,1698692120.729286,39.000000,0.000000,4199.487305,4172.307617,4169.230957,4174.871582,4221.538574,0.000000,1.000000,21.000000,,,,0.000000,4.000000,4.000000,4.000000,4.000000,0.000000,66.666664,,,,,,,,,,,,,,,,,,,,,,,,,,,,,,,,
1698692120.736025,1698692120.737066,40.000000,0.000000,4209.743652,4182.563965,4173.846191,4190.256348,4231.282227,0.000000,1.000000,21.000000,,,,0.000000,4.000000,4.000000,4.000000,4.000000,0.000000,66.666664,,,,,,,,,,,,,,,,,,,,,,,,,,,,,,,,
1698692120.743905,1698692120.745046,41.000000,0.000000,4214.871582,4194.871582,4173.846191,4192.820313,4225.641113,0.000000,1.000000,21.000000,,,,0.000000,4.000000,4.000000,4.000000,4.000000,0.000000,66.666664,,,,,,,,,,,,,,,,,,,,,,,,,,,,,,,,
1698692120.751786,1698692120.753027,42.000000,0.000000,4206.153809,4198.974121,4164.102539,4190.256348,4214.871582,0.000000,1.000000,21.000000,,,,0.000000,4.000000,4.000000,4.000000,4.000000,0.000000,66.666664,,,,,,,,,,,,,,,,,,,,,,,,,,,,,,,,
1698692120.759666,1698692120.760807,43.000000,0.000000,4218.974121,4196.922852,4180.000000,4215.897461,4217.436035,0.000000,1.000000,21.000000,,,,0.000000,4.000000,4.000000,4.000000,4.000000,0.000000,66.666664,,,,,,,,,,,,,,,,,,,,,,,,,,,,,,,,
1698692120.767546,1698692120.768787,44.000000,0.000000,4234.871582,4180.512695,4197.436035,4213.333496,4219.487305,0.000000,1.000000,21.000000,,,,0.000000,4.000000,4.000000,4.000000,4.000000,0.000000,66.666664,,,,,,,,,,,,,,,,,,,,,,,,,,,,,,,,
1698692120.775426,1698692120.776568,45.000000,0.000000,4213.846191,4157.948730,4181.538574,4188.205078,4216.922852,0.000000,1.000000,21.000000,,,,0.000000,4.000000,4.000000,4.000000,4.000000,0.000000,66.666664,,,,,,,,13.132327,5.738133,1.431271,1.580063,1.460082,6.227245,2.428612,1.151506,1.415175,1.640094,5.085930,4.584313,2.016309,1.026049,1.224242,10.166739,4.609137,2.678079,1.883455,1.533988,0.024883,0.031237,0.053810,0.030441,0.111808
1698692120.783306,1698692120.784348,46.000000,0.000000,4191.282227,4145.641113,4168.717773,4197.436035,4218.974121,0.000000,1.000000,21.000000,,,,0.000000,4.000000,4.000000,4.000000,4.000000,0.000000,66.666664,,,,,,,,,,,,,,,,,,,,,,,,,,,,,,,,
1698692120.791187,1698692120.792128,47.000000,0.000000,4181.025879,4123.077148,4165.641113,4188.205078,4216.922852,0.000000,1.000000,21.000000,,,,0.000000,4.000000,4.000000,4.000000,4.000000,0.000000,66.666664,,,,,,,,,,,,,,,,,,,,,,,,,,,,,,,,
1698692120.799067,1698692120.799909,48.000000,0.000000,4197.436035,4129.230957,4167.692383,4168.717773,4220.000000,0.000000,1.000000,21.000000,,,,0.000000,4.000000,4.000000,4.000000,4.000000,0.000000,66.666664,,,,,,,,,,,,,,,,,,,,,,,,,,,,,,,,
1698692120.806947,1698692120.807889,49.000000,0.000000,4211.282227,4147.692383,4157.436035,4165.641113,4229.743652,0.000000,1.000000,21.000000,,,,0.000000,4.000000,4.000000,4.000000,4.000000,0.000000,66.666664,,,,,,,,,,,,,,,,,,,,,,,,,,,,,,,,
1698692120.814828,1698692120.815869,50.000000,0.000000,4214.358887,4147.692383,4166.153809,4176.922852,4225.128418,0.000000,1.000000,21.000000,,,,0.000000,4.000000,4.000000,4.000000,4.000000,0.000000,66.666664,,,,,,,,,,,,,,,,,,,,,,,,,,,,,,,,
1698692120.822708,1698692120.823849,51.000000,0.000000,4239.487305,4170.256348,4215.384766,4226.153809,4215.384766,0.000000,1.000000,21.000000,,,,0.000000,4.000000,4.000000,4.000000,4.000000,0.000000,66.666664,,,,,,,,,,,,,,,,,,,,,,,,,,,,,,,,
1698692120.830588,1698692120.831830,52.000000,0.000000,4232.307617,4172.307617,4218.461426,4235.897461,4216.922852,0.000000,1.000000,21.000000,,,,0.000000,4.000000,4.000000,4.000000,4.000000,0.000000,66.666664,,,,,,,,,,,,,,,,,,,,,,,,,,,,,,,,
1698692120.838468,1698692120.839810,53.000000,0.000000,4207.179688,4157.948730,4189.230957,4202.563965,4220.512695,0.000000,1.000000,21.000000,,,,0.000000,4.000000,4.000000,4.000000,4.000000,0.000000,66.666664,,,,,,,,,,,,,,,,,,,,,,,,,,,,,,,,
1698692120.846349,1698692120.847690,54.000000,0.000000,4211.794922,4164.102539,4182.051270,4204.615234,4218.461426,0.000000,1.000000,21.000000,,,,0.000000,4.000000,4.000000,4.000000,4.000000,0.000000,66.666664,,,,,,,,,,,,,,,,,,,,,,,,,,,,,,,,
1698692120.854229,1698692120.855671,55.000000,0.000000,4224.615234,4170.256348,4193.333496,4225.128418,4218.461426,0.000000,1.000000,21.000000,,,,0.000000,4.000000,4.000000,4.000000,4.000000,0.000000,66.666664,,,,,,,,,,,,,,,,,,,,,,,,,,,,,,,,
1698692120.862109,1698692120.863451,56.000000,0.000000,4228.205078,4196.922852,4218.461426,4235.897461,4218.461426,0.000000,1.000000,21.000000,,,,0.000000,4.000000,4.000000,4.000000,4.000000,0.000000,66.666664,,,,,,,,,,,,,,,,,,,,,,,,,,,,,,,,
1698692120.869989,1698692120.871431,57.000000,0.000000,4204.102539,4211.282227,4219.487305,4223.589844,4217.948730,0.000000,1.000000,21.000000,,,,0.000000,4.000000,4.000000,4.000000,4.000000,0.000000,66.666664,,,,,,,,,,,,,,,,,,,,,,,,,,,,,,,,
1698692120.877869,1698692120.879211,58.000000,0.000000,4208.717773,4196.922852,4217.948730,4223.589844,4220.000000,0.000000,1.000000,21.000000,,,,0.000000,4.000000,4.000000,4.000000,4.000000,0.000000,66.666664,,,,,,,,,,,,,,,,,,,,,,,,,,,,,,,,
1698692120.885750,1698692120.887192,59.000000,0.000000,4247.692383,4198.974121,4240.512695,4246.153809,4220.000000,0.000000,1.000000,21.000000,,,,0.000000,4.000000,4.000000,4.000000,4.000000,0.000000,66.666664,,,,,,,,,,,,,,,,,,,,,,,,,,,,,,,,
1698692120.893630,1698692120.894972,60.000000,0.000000,4264.615234,4227.692383,4263.589844,4261.538574,4218.974121,0.000000,1.000000,21.000000,,,,0.000000,4.000000,4.000000,4.000000,4.000000,0.000000,66.666664,,,,,,,,,,,,,,,,,,,,,,,,,,,,,,,,
1698692120.901510,1698692120.902952,61.000000,0.000000,4281.538574,4260.512695,4282.051270,4286.666504,4221.025879,0.000000,1.000000,21.000000,,,,0.000000,4.000000,4.000000,4.000000,4.000000,0.000000,66.666664,,,,,,,,9.820533,4.165962,1.602020,1.569711,1.472907,6.955687,2.556109,1.444981,1.283942,1.759912,4.492132,3.276052,2.088382,1.083803,1.214384,8.149843,3.556653,3.700562,1.783829,1.538057,0.043245,0.048613,0.081555,0.053965,0.194096
1698692120.909391,1698692120.910733,62.000000,0.000000,4284.615234,4250.256348,4262.051270,4286.153809,4217.948730,0.000000,1.000000,21.000000,,,,0.000000,4.000000,4.000000,4.000000,4.000000,0.000000,66.666664,,,,,,,,,,,,,,,,,,,,,,,,,,,,,,,,
1698692120.917271,1698692120.918713,63.000000,0.000000,4276.410156,4244.102539,4234.871582,4263.077148,4217.948730,0.000000,1.000000,21.000000,,,,0.000000,4.000000,4.000000,4.000000,4.000000,0.000000,66.666664,,,,,,,,,,,,,,,,,,,,,,,,,,,,,,,,
1698692120.925151,1698692120.926493,64.000000,0.000000,4271.794922,4252.307617,4230.769043,4244.615234,4228.205078,450.000000,1.000000,21.000000,,,,0.000000,4.000000,4.000000,4.000000,4.000000,0.000000,66.666664,,,,,,,,,,,,,,,,,,,,,,,,,,,,,,,,
1698692120.933031,1698692120.934474,65.000000,0.000000,4258.461426,4231.794922,4219.487305,4220.512695,4229.743652,450.000000,1.000000,21.000000,,,,0.000000,4.000000,4.000000,4.000000,4.000000,0.000000,66.666664,,,,,,,,,,,,,,,,,,,,,,,,,,,,,,,,
1698692120.940912,1698692120.942254,66.000000,0.000000,4262.563965,4229.743652,4210.769043,4227.179688,4218.974121,1023.000000,1.000000,21.000000,,,,0.000000,4.000000,4.000000,4.000000,4.000000,0.000000,66.666664,,,,,,,,,,,,,,,,,,,,,,,,,,,,,,,,
1698692120.948792,1698692120.950234,67.000000,0.000000,4261.538574,4233.846191,4208.717773,4243.077148,4217.436035,450.000000,1.000000,21.000000,,,,0.000000,4.000000,4.000000,4.000000,4.000000,0.000000,66.666664,,,,,,,,,,,,,,,,,,,,,,,,,,,,,,,,
1698692120.956672,1698692120.958015,68.000000,0.000000,4256.922852,4229.743652,4228.717773,4247.692383,4221.538574,1023.000000,1.000000,21.000000,,,,0.000000,4.000000,4.000000,4.000000,4.000000,0.000000,66.666664,,,,,,,,,,,,,,,,,,,,,,,,,,,,,,,,
1698692120.964552,1698692120.965995,69.000000,0.000000,4265.128418,4221.538574,4244.615234,4248.205078,4218.974121,450.000000,1.000000,21.000000,,,,0.000000,4.000000,4.000000,4.000000,4.000000,0.000000,66.666664,,,,,,,,,,,,,,,,,,,,,,,,,,,,,,,,
1698692120.972433,1698692120.973975,70.000000,0.000000,4254.358887,4201.025879,4211.282227,4228.205078,4217.948730,1023.000000,1.000000,21.000000,,,,0.000000,4.000000,4.000000,4.000000,4.000000,0.000000,66.666664,,,,,,,,,,,,,,,,,,,,,,,,,,,,,,,,
1698692120.980313,1698692120.981956,71.000000,0.000000,4240.512695,4192.820313,4198.461426,4229.230957,4220.512695,450.000000,1.000000,21.000000,,,,0.000000,4.000000,4.000000,4.000000,4.000000,0.000000,66.666664,,,,,,,,,,,,,,,,,,,,,,,,,,,,,,,,
1698692120.988193,1698692120.989736,72.000000,0.000000,4226.666504,4196.922852,4216.410156,4245.641113,4218.974121,450.000000,1.000000,21.000000,,,,0.000000,4.000000,4.000000,4.000000,4.000000,0.000000,66.666664,,,,,,,,,,,,,,,,,,,,,,,,,,,,,,,,
1698692120.996073,1698692120.997716,73.000000,0.000000,4225.641113,4203.077148,4216.922852,4240.000000,4218.974121,1023.000000,1.000000,21.000000,,,,0.000000,4.000000,4.000000,4.000000,4.000000,0.000000,66.666664,,,,,,,,,,,,,,,,,,,,,,,,,,,,,,,,
1698692121.003954,1698692121.005496,74.000000,0.000000,4241.025879,4201.025879,4200.000000,4223.589844,4219.487305,450.000000,1.000000,21.000000,,,,0.000000,4.000000,4.000000,4.000000,4.000000,0.000000,66.666664,,,,,,,,,,,,,,,,,,,,,,,,,,,,,,,,
1698692121.011834,1698692121.013476,75.000000,0.000000,4232.307617,4182.563965,4182.051270,4209.230957,4218.974121,0.000000,1.000000,21.000000,,,,0.000000,4.000000,4.000000,4.000000,4.000000,0.000000,66.666664,,,,,,,,,,,,,,,,,,,,,,,,,,,,,,,,
1698692121.019714,1698692121.021257,76.000000,0.000000,4233.333496,4196.922852,4199.487305,4232.820313,4219.487305,450.000000,1.000000,21.000000,,,,0.000000,4.000000,4.000000,4.000000,4.000000,0.000000,66.666664,,,,,,,,,,,,,,,,,,,,,,,,,,,,,,,,
1698692121.027594,1698692121.029037,77.000000,0.000000,4234.358887,4223.589844,4206.153809,4244.102539,4219.487305,450.000000,1.000000,21.000000,,,,0.000000,4.000000,4.000000,4.000000,4.000000,0.000000,66.666664,1.000000,33.333332,2.000000,2.000000,2.000000,3.000000,0.000000,8.886434,3.393460,1.808036,1.528993,1.417161,8.049294,2.875811,2.046771,1.330367,1.799384,4.739857,2.909233,2.332187,1.143847,1.155349,7.798436,3.364621,5.014221,1.683148,1.507430,0.066619,0.065938,0.108451,0.081523,0.282642
1698692121.035475,1698692121.036817,78.000000,0.000000,4222.563965,4215.384766,4188.205078,4210.769043,4219.487305,450.000000,1.000000,21.000000,,,,0.000000,4.000000,4.000000,4.000000,4.000000,0.000000,66.666664,,,,,,,,,,,,,,,,,,,,,,,,,,,,,,,,
1698692121.043355,1698692121.044598,79.000000,0.000000,4237.436035,4215.384766,4203.589844,4212.820313,4219.487305,0.000000,1.000000,21.000000,,,,0.000000,4.000000,4.000000,4.000000,4.000000,0.000000,66.666664,,,,,,,,,,,,,,,,,,,,,,,,,,,,,,,,
1698692121.051235,1698692121.052378,80.000000,0.000000,4246.666504,4221.538574,4221.538574,4234.871582,4219.487305,450.000000,1.000000,21.000000,,,,0.000000,4.000000,4.000000,4.000000,4.000000,0.000000,66.666664,,,,,,,,,,,,,,,,,,,,,,,,,,,,,,,,
1698692121.059116,1698692121.060359,81.000000,0.000000,4263.589844,4235.897461,4236.922852,4249.743652,4219.487305,450.000000,1.000000,21.000000,,,,0.000000,4.000000,4.000000,4.000000,4.000000,0.000000,66.666664,,,,,,,,,,,,,,,,,,,,,,,,,,,,,,,,
1698692121.066996,1698692121.068339,82.000000,0.000000,4286.666504,4240.000000,4248.205078,4253.333496,4218.974121,450.000000,1.000000,21.000000,,,,0.000000,4.000000,4.000000,4.000000,4.000000,0.000000,66.666664,,,,,,,,,,,,,,,,,,,,,,,,,,,,,,,,
1698692121.074876,1698692121.076319,83.000000,0.000000,4288.205078,4229.743652,4253.333496,4266.666504,4218.461426,0.000000,1.000000,21.000000,,,,0.000000,4.000000,4.000000,4.000000,4.000000,0.000000,66.666664,,,,,,,,,,,,,,,,,,,,,,,,,,,,,,,,
1698692121.082756,1698692121.084300,84.000000,0.000000,4284.615234,4240.000000,4254.358887,4291.282227,4219.487305,450.000000,1.000000,21.000000,,,,0.000000,4.000000,4.000000,4.000000,4.000000,0.000000,66.666664,,,,,,,,,,,,,,,,,,,,,,,,,,,,,,,,
1698692121.090636,1698692121.092080,85.000000,0.000000,4262.051270,4235.897461,4224.615234,4258.461426,4220.512695,450.000000,1.000000,21.000000,,,,0.000000,4.000000,4.000000,4.000000,4.000000,0.000000,66.666664,,,,,,,,,,,,,,,,,,,,,,,,,,,,,,,,
1698692121.098517,1698692121.099860,86.000000,0.000000,4256.922852,4244.102539,4218.461426,4230.769043,4216.922852,450.000000,1.000000,21.000000,,,,0.000000,4.000000,4.000000,4.000000,4.000000,0.000000,66.666664,,,,,,,,,,,,,,,,,,,,,,,,,,,,,,,,
1698692121.106397,1698692121.107641,87.000000,0.000000,4277.436035,4264.615234,4237.436035,4254.358887,4222.563965,0.000000,1.000000,21.000000,,,,0.000000,4.000000,4.000000,4.000000,4.000000,0.000000,66.666664,,,,,,,,,,,,,,,,,,,,,,,,,,,,,,,,
1698692121.114277,1698692121.115421,88.000000,0.000000,4277.436035,4250.256348,4224.102539,4255.384766,4232.307617,450.000000,1.000000,21.000000,,,,0.000000,4.000000,4.000000,4.000000,4.000000,0.000000,66.666664,,,,,,,,,,,,,,,,,,,,,,,,,,,,,,,,
1698692121.122157,1698692121.123401,89.000000,0.000000,4267.179688,4246.153809,4204.102539,4233.333496,4226.153809,450.000000,1.000000,21.000000,,,,0.000000,4.000000,4.000000,4.000000,4.000000,0.000000,66.666664,,,,,,,,,,,,,,,,,,,,,,,,,,,,,,,,
1698692121.130038,1698692121.131381,90.000000,0.000000,4258.461426,4246.153809,4204.615234,4228.205078,4215.897461,450.000000,1.000000,21.000000,,,,0.000000,4.000000,4.000000,4.000000,4.000000,0.000000,66.666664,,,,,,,,,,,,,,,,,,,,,,,,,,,,,,,,
1698692121.137918,1698692121.139362,91.000000,0.000000,4269.743652,4246.153809,4216.922852,4245.641113,4218.461426,0.000000,1.000000,21.000000,,,,0.000000,4.000000,4.000000,4.000000,4.000000,0.000000,66.666664,,,,,,,,,,,,,,,,,,,,,,,,,,,,,,,,
1698692121.145798,1698692121.147342,92.000000,0.000000,4270.256348,4231.794922,4213.333496,4243.589844,4220.000000,450.000000,1.000000,21.000000,,,,0.000000,4.000000,4.000000,4.000000,4.000000,0.000000,66.666664,,,,,,,,,,,,,,,,,,,,,,,,,,,,,,,,
1698692121.153679,1698692121.155322,93.000000,0.000000,4247.179688,4229.743652,4200.512695,4223.589844,4214.871582,450.000000,1.000000,21.000000,,,,0.000000,4.000000,4.000000,4.000000,4.000000,0.000000,66.666664,,,,,,,,9.988081,3.304965,2.080990,1.445703,1.309547,9.742411,3.246572,2.860667,1.502176,1.738167,6.202711,3.087303,2.661552,1.206171,1.080152,9.247350,3.799833,6.613680,1.594962,1.458869,0.091167,0.080061,0.130679,0.106799,0.354631
1698692121.161559,1698692121.163102,94.000000,0.000000,4254.358887,4268.717773,4208.717773,4229.743652,4214.871582,450.000000,1.000000,21.000000,,,,0.000000,4.000000,4.000000,4.000000,4.000000,0.000000,66.666664,,,,,,,,,,,,,,,,,,,,,,,,,,,,,,,,
1698692121.169439,1698692121.171083,95.000000,0.000000,4258.974121,4270.769043,4208.717773,4226.153809,4215.897461,0.000000,1.000000,21.000000,,,,0.000000,4.000000,4.000000,4.000000,4.000000,0.000000,66.666664,,,,,,,,,,,,,,,,,,,,,,,,,,,,,,,,
1698692121.177319,1698692121.178863,96.000000,0.000000,4250.769043,4248.205078,4208.205078,4220.512695,4215.384766,450.000000,1.000000,21.000000,,,,0.000000,4.000000,4.000000,4.000000,4.000000,0.000000,66.666664,,,,,,,,,,,,,,,,,,,,,,,,,,,,,,,,
1698692121.185200,1698692121.186843,97.000000,0.000000,4255.384766,4244.102539,4213.846191,4231.282227,4217.436035,450.000000,1.000000,21.000000,,,,0.000000,4.000000,4.000000,4.000000,4.000000,0.000000,66.666664,,,,,,,,,,,,,,,,,,,,,,,,,,,,,,,,
1698692121.193080,1698692121.194624,98.000000,0.000000,4260.512695,4233.846191,4213.333496,4233.333496,4213.846191,450.000000,1.000000,21.000000,,,,0.000000,4.000000,4.000000,4.000000,4.000000,0.000000,66.666664,,,,,,,,,,,,,,,,,,,,,,,,,,,,,,,,
1698692121.200960,1698692121.202604,99.000000,0.000000,4280.000000,4240.000000,4234.358887,4258.974121,4216.922852,0.000000,1.000000,21.000000,,,,0.000000,4.000000,4.000000,4.000000,4.000000,0.000000,66.666664,,,,,,,,,,,,,,,,,,,,,,,,,,,,,,,,
1698692121.208840,1698692121.210384,100.000000,0.000000,4289.743652,4252.307617,4247.692383,4283.077148,4226.153809,450.000000,1.000000,21.000000,,,,0.000000,4.000000,4.000000,4.000000,4.000000,0.000000,66.666664,,,,,,,,,,,,,,,,,,,,,,,,,,,,,,,,
1698692121.216720,1698692121.218365,101.000000,0.000000,4283.589844,4272.820313,4242.563965,4275.384766,4223.077148,450.000000,1.000000,21.000000,,,,0.000000,4.000000,4.000000,4.000000,4.000000,0.000000,66.666664,,,,,,,,,,,,,,,,,,,,,,,,,,,,,,,,
1698692121.224601,1698692121.226145,102.000000,0.000000,4276.410156,4276.922852,4233.333496,4265.128418,4217.436035,450.000000,1.000000,21.000000,,,,0.000000,4.000000,4.000000,4.000000,4.000000,0.000000,66.666664,,,,,,,,,,,,,,,,,,,,,,,,,,,,,,,,
1698692121.232481,1698692121.234125,103.000000,0.000000,4268.205078,4254.358887,4217.436035,4262.051270,4217.948730,0.000000,1.000000,21.000000,,,,0.000000,4.000000,4.000000,4.000000,4.000000,0.000000,66.666664,,,,,,,,,,,,,,,,,,,,,,,,,,,,,,,,
1698692121.240361,1698692121.241906,104.000000,0.000000,4274.358887,4248.205078,4207.179688,4255.384766,4218.461426,450.000000,1.000000,21.000000,,,,0.000000,4.000000,4.000000,4.000000,4.000000,0.000000,66.666664,,,,,,,,,,,,,,,,,,,,,,,,,,,,,,,,
1698692121.248242,1698692121.249886,105.000000,0.000000,4255.384766,4242.051270,4180.000000,4214.358887,4226.153809,450.000000,1.000000,21.000000,,,,0.000000,4.000000,4.000000,4.000000,4.000000,0.000000,66.666664,,,,,,,,,,,,,,,,,,,,,,,,,,,,,,,,
1698692121.256122,1698692121.257666,106.000000,0.000000,4235.897461,4240.000000,4171.794922,4199.487305,4233.333496,450.000000,1.000000,21.000000,,,,0.000000,4.000000,4.000000,4.000000,4.000000,0.000000,66.666664,,,,,,,,,,,,,,,,,,,,,,,,,,,,,,,,
1698692121.264002,1698692121.265647,107.000000,0.000000,4255.897461,4244.102539,4195.897461,4217.436035,4222.051270,0.000000,1.000000,21.000000,,,,0.000000,4.000000,4.000000,4.000000,4.000000,0.000000,66.666664,,,,,,,,,,,,,,,,,,,,,,,,,,,,,,,,
1698692121.271882,1698692121.273427,108.000000,0.000000,4258.461426,4221.538574,4192.307617,4199.487305,4213.846191,450.000000,1.000000,21.000000,,,,0.000000,4.000000,4.000000,4.000000,4.000000,0.000000,66.666664,,,,,,,,,,,,,,,,,,,,,,,,,,,,,,,,
1698692121.279763,1698692121.281407,109.000000,0.000000,4254.871582,4217.436035,4186.666504,4203.589844,4220.512695,450.000000,1.000000,21.000000,,,,0.000000,4.000000,4.000000,4.000000,4.000000,0.000000,66.666664,,,,,,,,11.785991,3.462900,2.555496,1.345185,1.176522,11.705351,3.545028,3.769643,1.707143,1.583994,8.041632,3.355169,3.135379,1.283193,1.028955,11.393460,4.420366,8.391647,1.547891,1.409357,0.110427,0.088242,0.145981,0.123417,0.389933
1698692121.287643,1698692121.289388,110.000000,0.000000,4245.641113,4205.128418,4170.769043,4216.922852,4220.000000,450.000000,1.000000,21.000000,,,,0.000000,4.000000,4.000000,4.000000,4.000000,0.000000,66.666664,,,,,,,,,,,,,,,,,,,,,,,,,,,,,,,,
1698692121.295523,1698692121.297368,111.000000,0.000000,4236.410156,4184.615234,4143.589844,4204.102539,4215.897461,0.000000,1.000000,21.000000,,,,0.000000,4.000000,4.000000,4.000000,4.000000,0.000000,66.666664,,,,,,,,,,,,,,,,,,,,,,,,,,,,,,,,
1698692121.303403,1698692121.305348,112.000000,0.000000,4245.128418,4211.282227,4144.102539,4196.922852,4218.461426,450.000000,1.000000,21.000000,,,,0.000000,4.000000,4.000000,4.000000,4.000000,0.000000,66.666664,,,,,,,,,,,,,,,,,,,,,,,,,,,,,,,,
1698692121.311283,1698692121.313128,113.000000,0.000000,4224.102539,4231.794922,4134.871582,4175.897461,4218.974121,450.000000,1.000000,21.000000,,,,0.000000,4.000000,4.000000,4.000000,4.000000,0.000000,66.666664,,,,,,,,,,,,,,,,,,,,,,,,,,,,,,,,
1698692121.319164,1698692121.320909,114.000000,0.000000,4215.897461,4227.692383,4132.820313,4167.692383,4218.461426,450.000000,1.000000,21.000000,,,,0.000000,4.000000,4.000000,4.000000,4.000000,0.000000,66.666664,,,,,,,,,,,,,,,,,,,,,,,,,,,,,,,,
1698692121.327044,1698692121.328689,115.000000,0.000000,4235.897461,4213.333496,4153.333496,4178.974121,4218.461426,0.000000,1.000000,21.000000,,,,0.000000,4.000000,4.000000,4.000000,4.000000,0.000000,66.666664,,,,,,,,,,,,,,,,,,,,,,,,,,,,,,,,
1698692121.334924,1698692121.336469,116.000000,0.000000,4232.820313,4207.179688,4160.512695,4175.897461,4217.948730,450.000000,1.000000,21.000000,,,,0.000000,4.000000,4.000000,4.000000,4.000000,0.000000,66.666664,,,,,,,,,,,,,,,,,,,,,,,,,,,,,,,,
1698692121.342805,1698692121.344250,117.000000,0.000000,4221.538574,4209.230957,4151.282227,4177.436035,4218.461426,450.000000,1.000000,21.000000,,,,0.000000,4.000000,4.000000,4.000000,4.000000,0.000000,66.666664,,,,,,,,,,,,,,,,,,,,,,,,,,,,,,,,
1698692121.350685,1698692121.352030,118.000000,0.000000,4209.230957,4186.666504,4136.922852,4174.358887,4218.461426,450.000000,1.000000,21.000000,,,,0.000000,4.000000,4.000000,4.000000,4.000000,0.000000,66.666664,,,,,,,,,,,,,,,,,,,,,,,,,,,,,,,,
1698692121.358565,1698692121.359810,119.000000,0.000000,4206.666504,4182.563965,4147.692383,4173.846191,4218.461426,0.000000,1.000000,21.000000,,,,0.000000,4.000000,4.000000,4.000000,4.000000,0.000000,66.666664,,,,,,,,,,,,,,,,,,,,,,,,,,,,,,,,
1698692121.366445,1698692121.367590,120.000000,0.000000,4215.897461,4201.025879,4157.948730,4187.692383,4218.461426,450.000000,1.000000,21.000000,,,,0.000000,4.000000,4.000000,4.000000,4.000000,0.000000,66.666664,,,,,,,,,,,,,,,,,,,,,,,,,,,,,,,,
1698692121.374326,1698692121.375371,121.000000,0.000000,4223.077148,4196.922852,4151.282227,4190.769043,4218.461426,450.000000,1.000000,21.000000,,,,0.000000,4.000000,4.000000,4.000000,4.000000,0.000000,66.666664,,,,,,,,,,,,,,,,,,,,,,,,,,,,,,,,
1698692121.382206,1698692121.383351,122.000000,0.000000,4231.794922,4190.769043,4156.410156,4196.922852,4218.461426,450.000000,1.000000,21.000000,,,,0.000000,4.000000,4.000000,4.000000,4.000000,0.000000,66.666664,,,,,,,,,,,,,,,,,,,,,,,,,,,,,,,,
1698692121.390086,1698692121.391131,123.000000,0.000000,4241.538574,4211.282227,4167.179688,4214.358887,4217.948730,0.000000,1.000000,21.000000,,,,0.000000,4.000000,4.000000,4.000000,4.000000,0.000000,66.666664,,,,,,,,,,,,,,,,,,,,,,,,,,,,,,,,
1698692121.397966,1698692121.398912,124.000000,0.000000,4260.000000,4237.948730,4182.051270,4222.563965,4217.948730,450.000000,1.000000,21.000000,,,,0.000000,4.000000,4.000000,4.000000,4.000000,0.000000,66.666664,,,,,,,,,,,,,,,,,,,,,,,,,,,,,,,,
1698692121.405847,1698692121.406692,125.000000,0.000000,4243.077148,4211.282227,4167.179688,4198.974121,4219.487305,450.000000,1.000000,21.000000,,,,0.000000,4.000000,4.000000,4.000000,4.000000,0.000000,66.666664,,,,,,,,13.366231,3.451642,3.272995,1.271684,1.042160,13.983608,3.661623,4.607800,1.860657,1.368832,10.038492,3.409279,3.780764,1.376721,1.028482,13.236474,4.810705,10.032393,1.564810,1.373237,0.119444,0.090082,0.153515,0.127864,0.380440
1698692121.413727,1698692121.414472,126.000000,0.000000,4206.153809,4168.205078,4141.025879,4183.077148,4216.922852,450.000000,1.000000,21.000000,,,,0.000000,4.000000,4.000000,4.000000,4.000000,0.000000,66.666664,,,,,,,,,,,,,,,,,,,,,,,,,,,,,,,,
1698692121.421607,1698692121.422253,127.000000,0.000000,4223.589844,4188.717773,4150.769043,4210.769043,4217.948730,229.000000,1.000000,21.000000,,,,0.000000,4.000000,4.000000,4.000000,4.000000,0.000000,66.666664,,,,,,,,,,,,,,,,,,,,,,,,,,,,,,,,
1698692121.429487,1698692121.430233,0.000000,0.000000,4237.948730,4198.974121,4146.666504,4205.641113,4227.179688,450.000000,1.000000,21.000000,,,,0.000000,4.000000,4.000000,4.000000,4.000000,0.000000,66.666664,,,,,,,,,,,,,,,,,,,,,,,,,,,,,,,,
1698692121.437368,1698692121.438213,1.000000,0.000000,4235.897461,4188.717773,4140.000000,4186.666504,4226.666504,450.000000,1.000000,21.000000,,,,0.000000,4.000000,4.000000,4.000000,4.000000,0.000000,66.666664,,,,,,,,,,,,,,,,,,,,,,,,,,,,,,,,
1698692121.445248,1698692121.446194,2.000000,0.000000,4243.589844,4213.333496,4156.410156,4194.358887,4218.461426,314.000000,1.000000,21.000000,,,,0.000000,2.000000,4.000000,4.000000,4.000000,0.000000,50.000000,,,,,,,,,,,,,,,,,,,,,,,,,,,,,,,,
1698692121.453128,1698692121.454174,3.000000,0.000000,4243.589844,4235.897461,4158.461426,4193.333496,4218.461426,450.000000,1.000000,21.000000,,,,0.000000,2.000000,4.000000,4.000000,4.000000,0.000000,50.000000,,,,,,,,,,,,,,,,,,,,,,,,,,,,,,,,
1698692121.461008,1698692121.462154,4.000000,0.000000,4261.025879,4233.846191,4158.461426,4206.666504,4221.025879,1023.000000,1.000000,21.000000,,,,0.000000,2.000000,4.000000,4.000000,4.000000,0.000000,50.000000,,,,,,,,,,,,,,,,,,,,,,,,,,,,,,,,
1698692121.468889,1698692121.470134,5.000000,0.000000,4267.179688,4207.179688,4155.384766,4209.230957,4218.461426,450.000000,1.000000,21.000000,,,,0.000000,2.000000,4.000000,4.000000,4.000000,0.000000,50.000000,,,,,,,,,,,,,,,,,,,,,,,,,,,,,,,,
1698692121.476769,1698692121.478114,6.000000,0.000000,4252.820313,4184.615234,4155.897461,4195.897461,4217.948730,1023.000000,1.000000,21.000000,,,,0.000000,2.000000,4.000000,4.000000,4.000000,0.000000,50.000000,,,,,,,,,,,,,,,,,,,,,,,,,,,,,,,,
1698692121.484649,1698692121.486095,7.000000,0.000000,4244.615234,4186.666504,4154.871582,4189.743652,4218.974121,450.000000,1.000000,21.000000,,,,0.000000,2.000000,4.000000,4.000000,4.000000,0.000000,50.000000,,,,,,,,,,,,,,,,,,,,,,,,,,,,,,,,
1698692121.492530,1698692121.493975,8.000000,0.000000,4233.846191,4182.563965,4129.743652,4175.384766,4218.974121,450.000000,1.000000,21.000000,,,,0.000000,2.000000,4.000000,4.000000,4.000000,0.000000,50.000000,,,,,,,,,,,,,,,,,,,,,,,,,,,,,,,,
1698692121.500410,1698692121.501955,9.000000,0.000000,4231.794922,4182.563965,4118.461426,4176.410156,4220.512695,1023.000000,1.000000,21.000000,,,,0.000000,2.000000,4.000000,4.000000,4.000000,0.000000,50.000000,,,,,,,,,,,,,,,,,,,,,,,,,,,,,,,,
1698692121.508290,1698692121.509736,10.000000,0.000000,4220.000000,4172.307617,4116.922852,4170.769043,4220.512695,450.000000,1.000000,21.000000,,,,0.000000,2.000000,4.000000,4.000000,4.000000,0.000000,50.000000,,,,,,,,,,,,,,,,,,,,,,,,,,,,,,,,
1698692121.516170,1698692121.517716,11.000000,0.000000,4215.384766,4184.615234,4129.230957,4170.256348,4220.512695,0.000000,1.000000,21.000000,,,,0.000000,2.000000,4.000000,4.000000,4.000000,0.000000,50.000000,,,,,,,,,,,,,,,,,,,,,,,,,,,,,,,,
1698692121.524050,1698692121.525496,12.000000,0.000000,4225.641113,4207.179688,4140.512695,4185.128418,4219.487305,450.000000,1.000000,21.000000,,,,0.000000,2.000000,4.000000,4.000000,4.000000,0.000000,50.000000,,,,,,,,,,,,,,,,,,,,,,,,,,,,,,,,
1698692121.531931,1698692121.533477,13.000000,0.000000,4207.692383,4176.410156,4114.871582,4163.077148,4220.000000,450.000000,1.000000,21.000000,,,,0.000000,2.000000,4.000000,4.000000,4.000000,0.000000,50.000000,1.000000,33.333332,2.000000,2.000000,2.000000,3.000000,0.000000,14.227840,3.161025,4.122957,1.268062,0.921363,16.280815,3.570027,5.193943,1.932983,1.139433,11.573294,3.255430,4.529777,1.490584,1.075126,13.903908,4.826866,11.176437,1.655652,1.354845,0.120852,0.089264,0.154786,0.121822,0.333454
1698692121.539811,1698692121.541257,14.000000,0.000000,4201.025879,4160.000000,4105.128418,4147.179688,4220.000000,450.000000,1.000000,21.000000,,,,0.000000,2.000000,4.000000,4.000000,4.000000,0.000000,50.000000,,,,,,,,,,,,,,,,,,,,,,,,,,,,,,,,
1698692121.547691,1698692121.549237,15.000000,0.000000,4207.692383,4157.948730,4112.820313,4151.282227,4216.922852,0.000000,1.000000,21.000000,,,,0.000000,2.000000,4.000000,4.000000,4.000000,0.000000,50.000000,,,,,,,,,,,,,,,,,,,,,,,,,,,,,,,,
1698692121.555571,1698692121.557018,16.000000,0.000000,4214.358887,4153.846191,4120.000000,4146.153809,4222.563965,0.000000,1.000000,21.000000,,,,0.000000,2.000000,4.000000,4.000000,4.000000,0.000000,50.000000,,,,,,,,,,,,,,,,,,,,,,,,,,,,,,,,
1698692121.563452,1698692121.564998,17.000000,0.000000,4231.282227,4172.307617,4127.692383,4150.769043,4234.358887,0.000000,1.000000,21.000000,,,,0.000000,2.000000,4.000000,4.000000,4.000000,0.000000,50.000000,,,,,,,,,,,,,,,,,,,,,,,,,,,,,,,,
1698692121.571332,1698692121.572778,18.000000,0.000000,4228.717773,4186.666504,4118.461426,4164.615234,4229.230957,0.000000,1.000000,21.000000,,,,0.000000,2.000000,4.000000,4.000000,4.000000,0.000000,50.000000,,,,,,,,,,,,,,,,,,,,,,,,,,,,,,,,
1698692121.579212,1698692121.580759,19.000000,0.000000,4235.897461,4201.025879,4127.179688,4177.436035,4215.384766,0.000000,1.000000,21.000000,,,,0.000000,2.000000,4.000000,4.000000,4.000000,0.000000,50.000000,,,,,,,,,,,,,,,,,,,,,,,,,,,,,,,,
1698692121.587093,1698692121.588539,20.000000,0.000000,4243.589844,4205.128418,4138.974121,4167.179688,4217.436035,0.000000,1.000000,21.000000,,,,0.000000,2.000000,4.000000,4.000000,4.000000,0.000000,50.000000,,,,,,,,,,,,,,,,,,,,,,,,,,,,,,,,
1698692121.594973,1698692121.596519,21.000000,0.000000,4231.794922,4192.820313,4132.820313,4163.589844,4223.077148,0.000000,1.000000,21.000000,,,,0.000000,2.000000,4.000000,4.000000,4.000000,0.000000,50.000000,,,,,,,,,,,,,,,,,,,,,,,,,,,,,,,,
1698692121.602853,1698692121.604299,22.000000,0.000000,4241.538574,4190.769043,4137.436035,4188.205078,4216.922852,0.000000,1.000000,21.000000,,,,0.000000,2.000000,4.000000,4.000000,4.000000,0.000000,50.000000,,,,,,,,,,,,,,,,,,,,,,,,,,,,,,,,
1698692121.610733,1698692121.612279,23.000000,0.000000,4259.487305,4192.820313,4154.871582,4196.410156,4219.487305,0.000000,1.000000,21.000000,,,,0.000000,2.000000,4.000000,4.000000,4.000000,0.000000,50.000000,,,,,,,,,,,,,,,,,,,,,,,,,,,,,,,,
1698692121.618614,1698692121.620060,24.000000,0.000000,4265.128418,4211.282227,4182.051270,4212.307617,4228.717773,0.000000,1.000000,21.000000,,,,0.000000,2.000000,4.000000,4.000000,4.000000,0.000000,50.000000,,,,,,,,,,,,,,,,,,,,,,,,,,,,,,,,
1698692121.626494,1698692121.628040,25.000000,0.000000,4242.051270,4213.333496,4175.384766,4213.333496,4224.102539,0.000000,1.000000,21.000000,,,,0.000000,2.000000,4.000000,4.000000,4.000000,0.000000,50.000000,,,,,,,,,,,,,,,,,,,,,,,,,,,,,,,,
1698692121.634374,1698692121.635820,26.000000,0.000000,4227.179688,4196.922852,4149.743652,4181.538574,4216.410156,0.000000,1.000000,21.000000,,,,0.000000,2.000000,4.000000,4.000000,4.000000,0.000000,50.000000,,,,,,,,,,,,,,,,,,,,,,,,,,,,,,,,
1698692121.642254,1698692121.643601,27.000000,0.000000,4243.589844,4203.077148,4156.922852,4177.948730,4218.461426,0.000000,1.000000,21.000000,,,,0.000000,2.000000,4.000000,4.000000,4.000000,0.000000,50.000000,,,,,,,,,,,,,,,,,,,,,,,,,,,,,,,,
1698692121.650134,1698692121.651381,28.000000,0.000000,4239.487305,4213.333496,4164.102539,4178.974121,4219.487305,0.000000,1.000000,21.000000,,,,0.000000,2.000000,4.000000,4.000000,4.000000,0.000000,50.000000,,,,,,,,,,,,,,,,,,,,,,,,,,,,,,,,
1698692121.658015,1698692121.659161,29.000000,0.000000,4249.230957,4225.641113,4179.487305,4190.769043,4216.922852,0.000000,1.000000,21.000000,,,,0.000000,2.000000,4.000000,4.000000,4.000000,0.000000,50.000000,,,,,,,,14.189969,2.683468,4.890602,1.338186,0.820279,18.116163,3.298781,5.395946,1.945457,0.944665,12.766850,3.013262,5.244218,1.622733,1.135835,13.647716,4.522765,11.545896,1.794577,1.347773,0.120956,0.090717,0.152081,0.111153,0.267651
1698692121.665895,1698692121.666941,30.000000,0.000000,4258.974121,4215.384766,4184.102539,4210.769043,4217.948730,0.000000,1.000000,21.000000,,,,0.000000,2.000000,4.000000,4.000000,4.000000,0.000000,50.000000,,,,,,,,,,,,,,,,,,,,,,,,,,,,,,,,
1698692121.673775,1698692121.674922,31.000000,0.000000,4229.743652,4182.563965,4156.922852,4194.358887,4218.974121,0.000000,1.000000,21.000000,,,,0.000000,2.000000,4.000000,4.000000,4.000000,0.000000,50.000000,,,,,,,,,,,,,,,,,,,,,,,,,,,,,,,,
1698692121.681656,1698692121.682902,32.000000,0.000000,4217.948730,4186.666504,4145.641113,4171.794922,4218.974121,0.000000,1.000000,21.000000,,,,0.000000,2.000000,4.000000,4.000000,4.000000,0.000000,50.000000,,,,,,,,,,,,,,,,,,,,,,,,,,,,,,,,
1698692121.689536,1698692121.690883,33.000000,0.000000,4213.333496,4182.563965,4141.538574,4167.692383,4218.461426,0.000000,1.000000,21.000000,,,,0.000000,2.000000,4.000000,4.000000,4.000000,0.000000,50.000000,,,,,,,,,,,,,,,,,,,,,,,,,,,,,,,,
1698692121.697416,1698692121.698863,34.000000,0.000000,4207.692383,4172.307617,4133.333496,4172.820313,4217.948730,0.000000,1.000000,21.000000,,,,0.000000,2.000000,4.000000,4.000000,4.000000,0.000000,50.000000,,,,,,,,,,,,,,,,,,,,,,,,,,,,,,,,
1698692121.705296,1698692121.706643,35.000000,0.000000,4217.436035,4180.512695,4123.589844,4166.666504,4218.974121,0.000000,1.000000,21.000000,,,,0.000000,2.000000,4.000000,4.000000,4.000000,0.000000,50.000000,,,,,,,,,,,,,,,,,,,,,,,,,,,,,,,,
1698692121.713177,1698692121.714424,36.000000,0.000000,4226.153809,4178.461426,4116.410156,4163.077148,4219.487305,0.000000,1.000000,21.000000,,,,0.000000,2.000000,4.000000,4.000000,4.000000,0.000000,50.000000,,,,,,,,,,,,,,,,,,,,,,,,,,,,,,,,
1698692121.721057,1698692121.722204,37.000000,0.000000,4231.794922,4194.871582,4127.179688,4177.948730,4220.512695,0.000000,1.000000,21.000000,,,,0.000000,2.000000,4.000000,4.000000,4.000000,0.000000,50.000000,,,,,,,,,,,,,,,,,,,,,,,,,,,,,,,,
1698692121.728937,1698692121.729984,38.000000,0.000000,4216.410156,4198.974121,4122.563965,4159.487305,4221.025879,0.000000,1.000000,21.000000,,,,0.000000,2.000000,4.000000,4.000000,4.000000,0.000000,50.000000,,,,,,,,,,,,,,,,,,,,,,,,,,,,,,,,
1698692121.736817,1698692121.737965,39.000000,0.000000,4206.153809,4180.512695,4111.794922,4145.641113,4217.436035,0.000000,1.000000,21.000000,,,,0.000000,2.000000,4.000000,4.000000,4.000000,0.000000,50.000000,,,,,,,,,,,,,,,,,,,,,,,,,,,,,,,,
1698692121.744697,1698692121.745945,40.000000,0.000000,4200.512695,4164.102539,4096.410156,4148.717773,4220.512695,0.000000,1.000000,21.000000,,,,0.000000,2.000000,4.000000,4.000000,4.000000,0.000000,50.000000,,,,,,,,,,,,,,,,,,,,,,,,,,,,,,,,
1698692121.752578,1698692121.753925,41.000000,0.000000,4178.461426,4135.384766,4072.820557,4116.922852,4227.179688,0.000000,1.000000,21.000000,,,,0.000000,2.000000,4.000000,4.000000,4.000000,0.000000,50.000000,,,,,,,,,,,,,,,,,,,,,,,,,,,,,,,,
1698692121.760458,1698692121.761906,42.000000,0.000000,4191.282227,4139.487305,4087.692383,4128.205078,4223.077148,0.000000,1.000000,21.000000,,,,0.000000,2.000000,4.000000,4.000000,4.000000,0.000000,50.000000,,,,,,,,,,,,,,,,,,,,,,,,,,,,,,,,
1698692121.768338,1698692121.769886,43.000000,0.000000,4212.307617,4166.153809,4105.128418,4155.384766,4216.410156,0.000000,1.000000,21.000000,,,,0.000000,2.000000,4.000000,4.000000,4.000000,0.000000,50.000000,,,,,,,,,,,,,,,,,,,,,,,,,,,,,,,,
1698692121.776219,1698692121.777866,44.000000,0.000000,4209.230957,4172.307617,4103.589844,4131.282227,4218.461426,0.000000,1.000000,21.000000,,,,0.000000,2.000000,4.000000,4.000000,4.000000,0.000000,50.000000,,,,,,,,,,,,,,,,,,,,,,,,,,,,,,,,
1698692121.784099,1698692121.785847,45.000000,0.000000,4197.436035,4147.692383,4092.307617,4107.179688,4219.487305,0.000000,1.000000,21.000000,,,,0.000000,2.000000,4.000000,4.000000,4.000000,0.000000,50.000000,,,,,,,,13.855844,2.188625,5.355914,1.444962,0.742702,19.258135,2.905787,5.274077,1.954703,0.822430,13.832737,2.809274,5.745193,1.755766,1.170768,13.188285,4.106699,11.086878,1.925885,1.338868,0.126484,0.096693,0.147669,0.103268,0.204266
1698692121.791979,1698692121.793627,46.000000,0.000000,4186.666504,4125.128418,4080.000000,4106.666504,4217.948730,0.000000,1.000000,21.000000,,,,0.000000,2.000000,4.000000,4.000000,4.000000,0.000000,50.000000,,,,,,,,,,,,,,,,,,,,,,,,,,,,,,,,
1698692121.799859,1698692121.801607,47.000000,0.000000,4210.256348,4164.102539,4112.307617,4136.410156,4220.000000,0.000000,1.000000,21.000000,,,,0.000000,2.000000,4.000000,4.000000,4.000000,0.000000,50.000000,,,,,,,,,,,,,,,,,,,,,,,,,,,,,,,,
1698692121.807740,1698692121.809387,48.000000,0.000000,4225.641113,4184.615234,4144.102539,4152.820313,4217.948730,0.000000,1.000000,21.000000,,,,0.000000,2.000000,4.000000,4.000000,4.000000,0.000000,50.000000,,,,,,,,,,,,,,,,,,,,,,,,,,,,,,,,
1698692121.815620,1698692121.817368,49.000000,0.000000,4222.051270,4166.153809,4150.769043,4148.717773,4217.436035,0.000000,1.000000,21.000000,,,,0.000000,2.000000,4.000000,4.000000,4.000000,0.000000,50.000000,,,,,,,,,,,,,,,,,,,,,,,,,,,,,,,,
1698692121.823500,1698692121.825148,50.000000,0.000000,4232.307617,4168.205078,4161.025879,4150.769043,4224.615234,0.000000,1.000000,21.000000,,,,0.000000,2.000000,4.000000,4.000000,4.000000,0.000000,50.000000,,,,,,,,,,,,,,,,,,,,,,,,,,,,,,,,
1698692121.831380,1698692121.833129,51.000000,0.000000,4231.794922,4178.461426,4162.051270,4150.256348,4232.820313,0.000000,1.000000,21.000000,,,,0.000000,2.000000,4.000000,4.000000,4.000000,0.000000,50.000000,,,,,,,,,,,,,,,,,,,,,,,,,,,,,,,,
1698692121.839261,1698692121.840909,52.000000,0.000000,4227.179688,4180.512695,4154.871582,4156.410156,4232.820313,0.000000,1.000000,21.000000,,,,0.000000,2.000000,4.000000,4.000000,4.000000,0.000000,50.000000,,,,,,,,,,,,,,,,,,,,,,,,,,,,,,,,
1698692121.847141,1698692121.848889,53.000000,0.000000,4216.410156,4157.948730,4142.563965,4159.487305,4225.128418,0.000000,1.000000,21.000000,,,,0.000000,2.000000,4.000000,4.000000,4.000000,0.000000,50.000000,,,,,,,,,,,,,,,,,,,,,,,,,,,,,,,,
1698692121.855021,1698692121.856669,54.000000,0.000000,4210.256348,4149.743652,4134.358887,4161.538574,4215.897461,0.000000,1.000000,21.000000,,,,0.000000,2.000000,4.000000,4.000000,4.000000,0.000000,50.000000,,,,,,,,,,,,,,,,,,,,,,,,,,,,,,,,
1698692121.862901,1698692121.864650,55.000000,0.000000,4218.461426,4162.051270,4127.692383,4162.563965,4216.922852,0.000000,1.000000,21.000000,,,,0.000000,2.000000,4.000000,4.000000,4.000000,0.000000,50.000000,,,,,,,,,,,,,,,,,,,,,,,,,,,,,,,,
1698692121.870782,1698692121.872430,56.000000,0.000000,4209.230957,4153.846191,4112.307617,4151.794922,4228.717773,0.000000,1.000000,21.000000,,,,0.000000,2.000000,4.000000,4.000000,4.000000,0.000000,50.000000,,,,,,,,,,,,,,,,,,,,,,,,,,,,,,,,
1698692121.878662,1698692121.880410,57.000000,0.000000,4205.641113,4162.051270,4113.333496,4147.179688,4230.769043,0.000000,1.000000,21.000000,,,,0.000000,2.000000,4.000000,4.000000,4.000000,0.000000,50.000000,,,,,,,,,,,,,,,,,,,,,,,,,,,,,,,,
1698692121.886542,1698692121.888191,58.000000,0.000000,4201.538574,4170.256348,4107.692383,4131.282227,4217.948730,0.000000,1.000000,21.000000,,,,0.000000,2.000000,4.000000,4.000000,4.000000,0.000000,50.000000,,,,,,,,,,,,,,,,,,,,,,,,,,,,,,,,
1698692121.894422,1698692121.896171,59.000000,0.000000,4203.077148,4164.102539,4109.743652,4138.974121,4215.384766,0.000000,1.000000,21.000000,,,,0.000000,2.000000,4.000000,4.000000,4.000000,0.000000,50.000000,,,,,,,,,,,,,,,,,,,,,,,,,,,,,,,,
1698692121.902303,1698692121.903951,60.000000,0.000000,4213.333496,4157.948730,4123.077148,4167.179688,4225.641113,0.000000,1.000000,21.000000,,,,0.000000,2.000000,4.000000,4.000000,4.000000,0.000000,50.000000,,,,,,,,,,,,,,,,,,,,,,,,,,,,,,,,
1698692121.910183,1698692121.911931,61.000000,0.000000,4215.384766,4155.897461,4134.358887,4169.230957,4224.615234,0.000000,1.000000,21.000000,,,,0.000000,2.000000,4.000000,4.000000,4.000000,0.000000,50.000000,,,,,,,,13.408367,1.855480,5.376693,1.540430,0.688409,19.459963,2.442838,5.037557,2.007703,0.782379,15.008079,2.660511,5.885320,1.868528,1.150942,13.231757,3.752662,9.933992,1.998597,1.308261,0.138387,0.105443,0.143149,0.103257,0.158083
1698692121.918063,1698692121.919712,62.000000,0.000000,4309.230957,4252.307617,4233.333496,4250.256348,4216.922852,0.000000,1.000000,21.000000,,,,0.000000,2.000000,4.000000,4.000000,4.000000,0.000000,50.000000,,,,,,,,,,,,,,,,,,,,,,,,,,,,,,,,
1698692121.925943,1698692121.927692,63.000000,0.000000,4435.384766,4369.230957,4344.102539,4364.102539,4218.461426,0.000000,1.000000,21.000000,,,,0.000000,2.000000,4.000000,4.000000,4.000000,0.000000,50.000000,,,,,,,,,,,,,,,,,,,,,,,,,,,,,,,,
1698692121.933824,1698692121.935472,64.000000,0.000000,4436.922852,4371.282227,4337.436035,4362.051270,4221.025879,450.000000,1.000000,21.000000,,,,0.000000,2.000000,4.000000,4.000000,4.000000,0.000000,50.000000,,,,,,,,,,,,,,,,,,,,,,,,,,,,,,,,
1698692121.941704,1698692121.943452,65.000000,0.000000,4400.512695,4344.615234,4305.641113,4327.692383,4219.487305,450.000000,1.000000,21.000000,,,,0.000000,2.000000,4.000000,4.000000,4.000000,0.000000,50.000000,,,,,,,,,,,,,,,,,,,,,,,,,,,,,,,,
1698692121.949584,1698692121.951232,66.000000,0.000000,4411.794922,4356.922852,4307.179688,4332.307617,4219.487305,1023.000000,1.000000,21.000000,,,,0.000000,4.000000,4.000000,4.000000,4.000000,0.000000,66.666664,,,,,,,,,,,,,,,,,,,,,,,,,,,,,,,,
1698692121.957464,1698692121.959213,67.000000,0.000000,4423.589844,4356.922852,4302.051270,4333.333496,4220.512695,450.000000,1.000000,21.000000,,,,0.000000,4.000000,4.000000,4.000000,4.000000,0.000000,66.666664,,,,,,,,,,,,,,,,,,,,,,,,,,,,,,,,
1698692121.965345,1698692121.966993,68.000000,0.000000,4383.077148,4313.846191,4267.692383,4305.128418,4218.461426,1023.000000,1.000000,21.000000,,,,0.000000,4.000000,4.000000,4.000000,4.000000,0.000000,66.666664,,,,,,,,,,,,,,,,,,,,,,,,,,,,,,,,
1698692121.973225,1698692121.974773,69.000000,0.000000,4340.512695,4276.922852,4232.820313,4267.692383,4218.461426,450.000000,1.000000,21.000000,,,,0.000000,4.000000,4.000000,4.000000,4.000000,0.000000,66.666664,,,,,,,,,,,,,,,,,,,,,,,,,,,,,,,,
1698692121.981105,1698692121.982554,70.000000,0.000000,4350.256348,4276.922852,4226.666504,4268.205078,4220.000000,1023.000000,1.000000,21.000000,,,,0.000000,4.000000,4.000000,4.000000,4.000000,0.000000,66.666664,,,,,,,,,,,,,,,,,,,,,,,,,,,,,,,,
1698692121.988985,1698692121.990334,71.000000,0.000000,4347.179688,4278.974121,4236.410156,4286.153809,4218.974121,450.000000,1.000000,21.000000,,,,0.000000,4.000000,4.000000,4.000000,4.000000,0.000000,66.666664,,,,,,,,,,,,,,,,,,,,,,,,,,,,,,,,
1698692121.996866,1698692121.998314,72.000000,0.000000,4339.487305,4303.589844,4256.922852,4291.282227,4218.461426,450.000000,1.000000,21.000000,,,,0.000000,4.000000,4.000000,4.000000,4.000000,0.000000,66.666664,,,,,,,,,,,,,,,,,,,,,,,,,,,,,,,,
1698692122.004746,1698692122.006095,73.000000,0.000000,4369.743652,4313.846191,4254.358887,4272.820313,4226.153809,1023.000000,1.000000,21.000000,,,,0.000000,4.000000,4.000000,4.000000,4.000000,0.000000,66.666664,,,,,,,,,,,,,,,,,,,,,,,,,,,,,,,,
1698692122.012626,1698692122.013875,74.000000,0.000000,4391.794922,4270.769043,4224.102539,4239.487305,4234.871582,450.000000,1.000000,21.000000,,,,0.000000,4.000000,4.000000,4.000000,4.000000,0.000000,66.666664,,,,,,,,,,,,,,,,,,,,,,,,,,,,,,,,
1698692122.020507,1698692122.021655,75.000000,0.000000,4406.666504,4256.410156,4218.974121,4235.384766,4231.282227,0.000000,1.000000,21.000000,,,,0.000000,4.000000,4.000000,4.000000,4.000000,0.000000,66.666664,,,,,,,,,,,,,,,,,,,,,,,,,,,,,,,,
1698692122.028387,1698692122.029435,76.000000,0.000000,4427.179688,4258.461426,4208.717773,4229.230957,4221.538574,450.000000,1.000000,21.000000,,,,0.000000,4.000000,4.000000,4.000000,4.000000,0.000000,66.666664,,,,,,,,,,,,,,,,,,,,,,,,,,,,,,,,
1698692122.036267,1698692122.037216,77.000000,0.000000,4468.717773,4250.256348,4186.666504,4216.410156,4218.974121,450.000000,1.000000,21.000000,,,,0.000000,4.000000,4.000000,4.000000,4.000000,0.000000,66.666664,1.000000,33.333332,2.000000,2.000000,2.000000,3.000000,0.000000,13.112459,1.845918,4.952175,1.594668,0.654927,18.605259,2.028497,4.919913,2.124675,0.815336,16.573795,2.624782,5.609293,1.940187,1.075748,14.233036,3.601110,8.375889,1.986007,1.244479,0.153534,0.113124,0.139911,0.111429,0.132860
1698692122.044147,1698692122.044996,78.000000,0.000000,4505.128418,4256.410156,4176.410156,4202.563965,4219.487305,450.000000,1.000000,21.000000,,,,0.000000,4.000000,4.000000,4.000000,4.000000,0.000000,66.666664,,,,,,,,,,,,,,,,,,,,,,,,,,,,,,,,
1698692122.052028,1698692122.052976,79.000000,0.000000,4523.589844,4260.512695,4166.153809,4176.922852,4218.461426,0.000000,1.000000,21.000000,,,,0.000000,4.000000,4.000000,4.000000,4.000000,0.000000,66.666664,,,,,,,,,,,,,,,,,,,,,,,,,,,,,,,,
1698692122.059908,1698692122.060957,80.000000,0.000000,4571.282227,4276.922852,4170.256348,4186.153809,4219.487305,450.000000,1.000000,21.000000,,,,0.000000,4.000000,4.000000,4.000000,4.000000,0.000000,66.666664,,,,,,,,,,,,,,,,,,,,,,,,,,,,,,,,
1698692122.067788,1698692122.068937,81.000000,0.000000,4605.128418,4287.179688,4172.307617,4188.717773,4218.974121,450.000000,1.000000,21.000000,,,,0.000000,4.000000,4.000000,4.000000,4.000000,0.000000,66.666664,,,,,,,,,,,,,,,,,,,,,,,,,,,,,,,,
1698692122.075668,1698692122.076917,82.000000,0.000000,4603.589844,4274.871582,4176.922852,4171.794922,4217.948730,450.000000,1.000000,21.000000,,,,0.000000,4.000000,4.000000,4.000000,4.000000,0.000000,66.666664,,,,,,,,,,,,,,,,,,,,,,,,,,,,,,,,
1698692122.083548,1698692122.084898,83.000000,0.000000,4610.256348,4266.666504,4195.897461,4184.615234,4218.974121,0.000000,1.000000,21.000000,,,,0.000000,4.000000,4.000000,4.000000,4.000000,0.000000,66.666664,,,,,,,,,,,,,,,,,,,,,,,,,,,,,,,,
1698692122.091429,1698692122.092878,84.000000,0.000000,4618.461426,4276.922852,4208.205078,4196.922852,4217.436035,450.000000,1.000000,21.000000,,,,0.000000,4.000000,4.000000,4.000000,4.000000,0.000000,66.666664,,,,,,,,,,,,,,,,,,,,,,,,,,,,,,,,
1698692122.099309,1698692122.100658,85.000000,0.000000,4618.461426,4303.589844,4217.948730,4196.410156,4220.512695,450.000000,1.000000,21.000000,,,,0.000000,4.000000,4.000000,4.000000,4.000000,0.000000,66.666664,,,,,,,,,,,,,,,,,,,,,,,,,,,,,,,,
1698692122.107189,1698692122.108539,86.000000,0.000000,4600.000000,4301.538574,4206.666504,4184.615234,4227.179688,450.000000,1.000000,21.000000,,,,0.000000,4.000000,4.000000,4.000000,4.000000,0.000000,66.666664,,,,,,,,,,,,,,,,,,,,,,,,,,,,,,,,
1698692122.115070,1698692122.116519,87.000000,0.000000,4576.922852,4281.025879,4191.282227,4173.333496,4225.128418,0.000000,1.000000,21.000000,,,,0.000000,4.000000,4.000000,4.000000,4.000000,0.000000,66.666664,,,,,,,,,,,,,,,,,,,,,,,,,,,,,,,,
1698692122.122950,1698692122.124299,88.000000,0.000000,4542.051270,4266.666504,4185.128418,4162.051270,4224.102539,450.000000,1.000000,21.000000,,,,0.000000,4.000000,4.000000,4.000000,4.000000,0.000000,66.666664,,,,,,,,,,,,,,,,,,,,,,,,,,,,,,,,
1698692122.130830,1698692122.132280,89.000000,0.000000,4488.717773,4258.461426,4164.102539,4136.922852,4231.282227,450.000000,1.000000,21.000000,,,,0.000000,4.000000,4.000000,4.000000,4.000000,0.000000,66.666664,,,,,,,,,,,,,,,,,,,,,,,,,,,,,,,,
1698692122.138710,1698692122.140060,90.000000,0.000000,4476.922852,4274.871582,4166.666504,4138.461426,4232.307617,450.000000,1.000000,21.000000,,,,0.000000,4.000000,4.000000,4.000000,4.000000,0.000000,66.666664,,,,,,,,,,,,,,,,,,,,,,,,,,,,,,,,
1698692122.146591,1698692122.148040,91.000000,0.000000,4462.563965,4260.512695,4166.666504,4140.512695,4230.256348,0.000000,1.000000,21.000000,,,,0.000000,4.000000,4.000000,4.000000,4.000000,0.000000,66.666664,,,,,,,,,,,,,,,,,,,,,,,,,,,,,,,,
1698692122.154471,1698692122.155821,92.000000,0.000000,4414.358887,4223.589844,4145.641113,4127.179688,4230.769043,450.000000,1.000000,21.000000,,,,0.000000,4.000000,4.000000,4.000000,4.000000,0.000000,66.666664,,,,,,,,,,,,,,,,,,,,,,,,,,,,,,,,
1698692122.162351,1698692122.163801,93.000000,0.000000,4379.487305,4217.436035,4149.230957,4138.461426,4222.051270,450.000000,1.000000,21.000000,,,,0.000000,4.000000,4.000000,4.000000,4.000000,0.000000,66.666664,,,,,,,,13.239271,2.654937,4.271268,1.639042,0.652750,17.509338,2.100807,5.046939,2.310013,0.918297,18.877388,3.156348,5.004307,1.971928,0.987357,16.374538,3.900213,6.806330,1.921369,1.166346,0.167154,0.116131,0.140250,0.125638,0.123859
1698692122.170231,1698692122.171581,94.000000,0.000000,4344.102539,4227.692383,4162.563965,4142.051270,4214.358887,450.000000,1.000000,21.000000,,,,0.000000,4.000000,4.000000,4.000000,4.000000,0.000000,66.666664,,,,,,,,,,,,,,,,,,,,,,,,,,,,,,,,
1698692122.178111,1698692122.179562,95.000000,0.000000,4330.256348,4250.256348,4169.743652,4133.846191,4224.615234,0.000000,1.000000,21.000000,,,,0.000000,4.000000,4.000000,4.000000,4.000000,0.000000,66.666664,,,,,,,,,,,,,,,,,,,,,,,,,,,,,,,,
1698692122.185992,1698692122.187542,96.000000,0.000000,4322.563965,4242.051270,4152.820313,4128.205078,4232.307617,450.000000,1.000000,21.000000,,,,0.000000,4.000000,4.000000,4.000000,4.000000,0.000000,66.666664,,,,,,,,,,,,,,,,,,,,,,,,,,,,,,,,
1698692122.193872,1698692122.195522,97.000000,0.000000,4304.102539,4217.436035,4147.179688,4135.384766,4232.820313,450.000000,1.000000,21.000000,,,,0.000000,4.000000,4.000000,4.000000,4.000000,0.000000,66.666664,,,,,,,,,,,,,,,,,,,,,,,,,,,,,,,,
1698692122.201752,1698692122.203303,98.000000,0.000000,4298.974121,4235.897461,4173.846191,4155.384766,4230.256348,450.000000,1.000000,21.000000,,,,0.000000,4.000000,4.000000,4.000000,4.000000,0.000000,66.666664,,,,,,,,,,,,,,,,,,,,,,,,,,,,,,,,
1698692122.209633,1698692122.211283,99.000000,0.000000,4277.436035,4237.948730,4172.820313,4146.666504,4222.563965,0.000000,1.000000,21.000000,,,,0.000000,4.000000,4.000000,4.000000,4.000000,0.000000,66.666664,,,,,,,,,,,,,,,,,,,,,,,,,,,,,,,,
1698692122.217513,1698692122.219063,100.000000,0.000000,4276.410156,4229.743652,4168.717773,4136.922852,4217.436035,450.000000,1.000000,21.000000,,,,0.000000,4.000000,4.000000,4.000000,4.000000,0.000000,66.666664,,,,,,,,,,,,,,,,,,,,,,,,,,,,,,,,
1698692122.225393,1698692122.227043,101.000000,0.000000,4291.794922,4231.794922,4176.922852,4146.666504,4220.512695,450.000000,1.000000,21.000000,,,,0.000000,4.000000,4.000000,4.000000,4.000000,0.000000,66.666664,,,,,,,,,,,,,,,,,,,,,,,,,,,,,,,,
1698692122.233273,1698692122.234824,102.000000,0.000000,4265.128418,4223.589844,4171.282227,4152.820313,4216.410156,450.000000,1.000000,21.000000,,,,0.000000,4.000000,4.000000,4.000000,4.000000,0.000000,66.666664,,,,,,,,,,,,,,,,,,,,,,,,,,,,,,,,
1698692122.241154,1698692122.242804,103.000000,0.000000,4233.333496,4221.538574,4164.102539,4146.666504,4215.384766,0.000000,1.000000,21.000000,,,,0.000000,4.000000,4.000000,4.000000,4.000000,0.000000,66.666664,,,,,,,,,,,,,,,,,,,,,,,,,,,,,,,,
1698692122.249034,1698692122.250584,104.000000,0.000000,4224.615234,4207.179688,4146.153809,4120.512695,4228.717773,450.000000,1.000000,21.000000,,,,0.000000,4.000000,4.000000,4.000000,4.000000,0.000000,66.666664,,,,,,,,,,,,,,,,,,,,,,,,,,,,,,,,
1698692122.256914,1698692122.258364,105.000000,0.000000,4231.282227,4198.974121,4136.410156,4131.794922,4230.769043,450.000000,1.000000,21.000000,,,,0.000000,4.000000,4.000000,4.000000,4.000000,0.000000,66.666664,,,,,,,,,,,,,,,,,,,,,,,,,,,,,,,,
1698692122.264794,1698692122.266145,106.000000,0.000000,4216.922852,4201.025879,4128.205078,4142.563965,4216.410156,450.000000,1.000000,21.000000,,,,0.000000,4.000000,4.000000,4.000000,4.000000,0.000000,66.666664,,,,,,,,,,,,,,,,,,,,,,,,,,,,,,,,
1698692122.272675,1698692122.274025,107.000000,0.000000,4195.384766,4192.820313,4121.538574,4105.128418,4214.871582,0.000000,1.000000,21.000000,,,,0.000000,4.000000,4.000000,4.000000,4.000000,0.000000,66.666664,,,,,,,,,,,,,,,,,,,,,,,,,,,,,,,,
1698692122.280555,1698692122.281805,108.000000,0.000000,4226.153809,4217.436035,4154.871582,4123.589844,4227.692383,450.000000,1.000000,21.000000,,,,0.000000,4.000000,4.000000,4.000000,4.000000,0.000000,66.666664,,,,,,,,,,,,,,,,,,,,,,,,,,,,,,,,
1698692122.288435,1698692122.289786,109.000000,0.000000,4249.743652,4250.256348,4178.974121,4175.897461,4234.358887,450.000000,1.000000,21.000000,,,,0.000000,4.000000,4.000000,4.000000,4.000000,0.000000,66.666664,,,,,,,,14.548864,5.304515,3.727390,1.750007,0.714109,17.082825,3.283341,5.541374,2.576798,1.103040,22.449436,5.072907,4.490339,2.024420,0.951944,19.684940,5.049543,5.712387,1.900129,1.121621,0.175851,0.115731,0.145931,0.142478,0.124092
1698692122.296315,1698692122.297766,110.000000,0.000000,4242.563965,4256.410156,4172.307617,4178.974121,4231.282227,450.000000,1.000000,21.000000,,,,0.000000,4.000000,4.000000,4.000000,4.000000,0.000000,66.666664,,,,,,,,,,,,,,,,,,,,,,,,,,,,,,,,
1698692122.304196,1698692122.305546,111.000000,0.000000,4235.384766,4240.000000,4163.589844,4157.948730,4223.077148,0.000000,1.000000,21.000000,,,,0.000000,4.000000,4.000000,4.000000,4.000000,0.000000,66.666664,,,,,,,,,,,,,,,,,,,,,,,,,,,,,,,,
1698692122.312076,1698692122.313327,112.000000,0.000000,4236.922852,4240.000000,4168.717773,4163.589844,4216.410156,450.000000,1.000000,21.000000,,,,0.000000,4.000000,4.000000,4.000000,4.000000,0.000000,66.666664,,,,,,,,,,,,,,,,,,,,,,,,,,,,,,,,
1698692122.319956,1698692122.321107,113.000000,0.000000,4254.358887,4266.666504,4188.205078,4194.358887,4218.974121,450.000000,1.000000,21.000000,,,,0.000000,4.000000,4.000000,4.000000,4.000000,0.000000,66.666664,,,,,,,,,,,,,,,,,,,,,,,,,,,,,,,,
1698692122.327836,1698692122.328887,114.000000,0.000000,4237.948730,4246.153809,4169.743652,4169.743652,4226.666504,450.000000,1.000000,21.000000,,,,0.000000,4.000000,4.000000,4.000000,4.000000,0.000000,66.666664,,,,,,,,,,,,,,,,,,,,,,,,,,,,,,,,
1698692122.335717,1698692122.336668,115.000000,0.000000,4209.230957,4213.333496,4142.563965,4128.205078,4233.333496,0.000000,1.000000,21.000000,,,,0.000000,4.000000,4.000000,4.000000,4.000000,0.000000,66.666664,,,,,,,,,,,,,,,,,,,,,,,,,,,,,,,,
1698692122.343597,1698692122.344448,116.000000,0.000000,4214.358887,4215.384766,4152.307617,4138.974121,4232.820313,450.000000,1.000000,21.000000,,,,0.000000,4.000000,4.000000,4.000000,4.000000,0.000000,66.666664,,,,,,,,,,,,,,,,,,,,,,,,,,,,,,,,
1698692122.351477,1698692122.352428,117.000000,0.000000,4227.692383,4217.436035,4167.692383,4153.333496,4225.641113,450.000000,1.000000,21.000000,,,,0.000000,4.000000,4.000000,4.000000,4.000000,0.000000,66.666664,,,,,,,,,,,,,,,,,,,,,,,,,,,,,,,,
1698692122.359357,1698692122.360408,118.000000,0.000000,4248.717773,4231.794922,4184.102539,4157.948730,4219.487305,450.000000,1.000000,21.000000,,,,0.000000,4.000000,4.000000,4.000000,4.000000,0.000000,66.666664,,,,,,,,,,,,,,,,,,,,,,,,,,,,,,,,
1698692122.367238,1698692122.368389,119.000000,0.000000,4267.692383,4237.948730,4191.282227,4157.948730,4216.410156,0.000000,1.000000,21.000000,,,,0.000000,4.000000,4.000000,4.000000,4.000000,0.000000,66.666664,,,,,,,,,,,,,,,,,,,,,,,,,,,,,,,,
1698692122.375118,1698692122.376369,120.000000,0.000000,4292.307617,4233.846191,4190.256348,4164.615234,4219.487305,450.000000,1.000000,21.000000,,,,0.000000,4.000000,4.000000,4.000000,4.000000,0.000000,66.666664,,,,,,,,,,,,,,,,,,,,,,,,,,,,,,,,
1698692122.382998,1698692122.384349,121.000000,0.000000,4321.538574,4229.743652,4180.512695,4158.461426,4228.717773,450.000000,1.000000,21.000000,,,,0.000000,4.000000,4.000000,4.000000,4.000000,0.000000,66.666664,,,,,,,,,,,,,,,,,,,,,,,,,,,,,,,,
1698692122.390878,1698692122.392329,122.000000,0.000000,4336.922852,4209.230957,4159.487305,4127.692383,4233.333496,450.000000,1.000000,21.000000,,,,0.000000,4.000000,4.000000,4.000000,4.000000,0.000000,66.666664,,,,,,,,,,,,,,,,,,,,,,,,,,,,,,,,
1698692122.398759,1698692122.400310,123.000000,0.000000,4380.000000,4215.384766,4174.871582,4149.230957,4231.794922,0.000000,1.000000,21.000000,,,,0.000000,4.000000,4.000000,4.000000,4.000000,0.000000,66.666664,,,,,,,,,,,,,,,,,,,,,,,,,,,,,,,,
1698692122.406639,1698692122.408290,124.000000,0.000000,4423.077148,4233.846191,4192.820313,4183.589844,4231.794922,450.000000,1.000000,21.000000,,,,0.000000,4.000000,4.000000,4.000000,4.000000,0.000000,66.666664,,,,,,,,,,,,,,,,,,,,,,,,,,,,,,,,
1698692122.414519,1698692122.416270,125.000000,0.000000,4430.769043,4237.948730,4182.563965,4166.153809,4233.333496,450.000000,1.000000,21.000000,,,,0.000000,4.000000,4.000000,4.000000,4.000000,0.000000,66.666664,,,,,,,,20.771780,10.391938,3.674942,1.984377,0.867498,19.452526,5.940116,6.443019,2.942553,1.378645,28.281200,8.968087,4.554918,2.160329,1.019338,24.593624,7.354592,5.429850,2.001101,1.159700,0.182897,0.117733,0.156515,0.160332,0.128985
1698692122.422399,1698692122.424050,126.000000,0.000000,4441.538574,4240.000000,4181.538574,4157.948730,4225.641113,450.000000,1.000000,21.000000,,,,0.000000,4.000000,4.000000,4.000000,4.000000,0.000000,66.666664,,,,,,,,,,,,,,,,,,,,,,,,,,,,,,,,
1698692122.430280,1698692122.432031,127.000000,0.000000,4468.717773,4242.051270,4197.948730,4181.025879,4217.948730,229.000000,1.000000,21.000000,,,,0.000000,4.000000,4.000000,4.000000,4.000000,0.000000,66.666664,,,,,,,,,,,,,,,,,,,,,,,,,,,,,,,,
1698692122.438160,1698692122.439811,0.000000,0.000000,4495.384766,4260.512695,4216.922852,4204.102539,4218.974121,450.000000,1.000000,21.000000,,,,0.000000,4.000000,4.000000,4.000000,4.000000,0.000000,66.666664,,,,,,,,,,,,,,,,,,,,,,,,,,,,,,,,
1698692122.446040,1698692122.447791,1.000000,0.000000,4466.666504,4260.512695,4198.461426,4189.743652,4220.512695,450.000000,1.000000,21.000000,,,,0.000000,4.000000,4.000000,4.000000,4.000000,0.000000,66.666664,,,,,,,,,,,,,,,,,,,,,,,,,,,,,,,,
1698692122.453920,1698692122.455572,2.000000,0.000000,4432.820313,4237.948730,4179.487305,4170.256348,4219.487305,1023.000000,1.000000,21.000000,,,,0.000000,4.000000,4.000000,4.000000,4.000000,0.000000,66.666664,,,,,,,,,,,,,,,,,,,,,,,,,,,,,,,,
1698692122.461801,1698692122.463552,3.000000,0.000000,4451.794922,4246.153809,4198.461426,4176.410156,4218.461426,450.000000,1.000000,21.000000,,,,0.000000,4.000000,4.000000,4.000000,4.000000,0.000000,66.666664,,,,,,,,,,,,,,,,,,,,,,,,,,,,,,,,
1698692122.469681,1698692122.471332,4.000000,0.000000,4440.000000,4248.205078,4199.487305,4166.666504,4218.974121,291.000000,1.000000,21.000000,,,,0.000000,4.000000,2.000000,4.000000,4.000000,0.000000,50.000000,,,,,,,,,,,,,,,,,,,,,,,,,,,,,,,,
1698692122.477561,1698692122.479313,5.000000,0.000000,4401.025879,4237.948730,4194.358887,4177.436035,4221.538574,450.000000,1.000000,21.000000,,,,0.000000,4.000000,2.000000,4.000000,4.000000,0.000000,50.000000,,,,,,,,,,,,,,,,,,,,,,,,,,,,,,,,
1698692122.485442,1698692122.487093,6.000000,0.000000,4369.230957,4225.641113,4187.692383,4190.256348,4226.153809,1023.000000,1.000000,21.000000,,,,0.000000,4.000000,2.000000,4.000000,4.000000,0.000000,50.000000,,,,,,,,,,,,,,,,,,,,,,,,,,,,,,,,
1698692122.493322,1698692122.495073,7.000000,0.000000,4337.436035,4217.436035,4167.692383,4169.743652,4229.230957,450.000000,1.000000,21.000000,,,,0.000000,4.000000,2.000000,4.000000,4.000000,0.000000,50.000000,,,,,,,,,,,,,,,,,,,,,,,,,,,,,,,,
1698692122.501202,1698692122.502854,8.000000,0.000000,4328.205078,4233.846191,4173.846191,4178.974121,4229.743652,450.000000,1.000000,21.000000,,,,0.000000,4.000000,2.000000,4.000000,4.000000,0.000000,50.000000,,,,,,,,,,,,,,,,,,,,,,,,,,,,,,,,
1698692122.509082,1698692122.510834,9.000000,0.000000,4311.794922,4233.846191,4187.179688,4201.538574,4232.820313,1023.000000,1.000000,21.000000,,,,0.000000,4.000000,2.000000,4.000000,4.000000,0.000000,50.000000,,,,,,,,,,,,,,,,,,,,,,,,,,,,,,,,
1698692122.516962,1698692122.518614,10.000000,0.000000,4284.102539,4219.487305,4196.410156,4206.153809,4231.282227,450.000000,1.000000,21.000000,,,,0.000000,4.000000,2.000000,4.000000,4.000000,0.000000,50.000000,,,,,,,,,,,,,,,,,,,,,,,,,,,,,,,,
1698692122.524843,1698692122.526594,11.000000,0.000000,4276.410156,4221.538574,4208.205078,4205.128418,4228.717773,0.000000,1.000000,21.000000,,,,0.000000,4.000000,2.000000,4.000000,4.000000,0.000000,50.000000,,,,,,,,,,,,,,,,,,,,,,,,,,,,,,,,
1698692122.532723,1698692122.534375,12.000000,0.000000,4288.205078,4246.153809,4223.077148,4216.410156,4231.282227,450.000000,1.000000,21.000000,,,,0.000000,4.000000,2.000000,4.000000,4.000000,0.000000,50.000000,,,,,,,,,,,,,,,,,,,,,,,,,,,,,,,,
1698692122.540603,1698692122.542355,13.000000,0.000000,4296.410156,4264.615234,4224.615234,4224.102539,4228.205078,450.000000,1.000000,21.000000,,,,0.000000,4.000000,2.000000,4.000000,4.000000,0.000000,50.000000,1.000000,33.333332,2.000000,2.000000,4.000000,4.000000,0.000000,34.860733,17.677771,4.208224,2.328063,1.113561,24.703350,9.937767,7.560800,3.394747,1.724743,35.969044,14.690255,5.458939,2.391676,1.192340,30.471792,10.793666,6.020335,2.232553,1.304844,0.197626,0.127321,0.171803,0.181653,0.136575
1698692122.548483,1698692122.550135,14.000000,0.000000,4272.307617,4237.948730,4198.974121,4200.000000,4217.436035,450.000000,1.000000,21.000000,,,,0.000000,4.000000,2.000000,4.000000,4.000000,0.000000,50.000000,,,,,,,,,,,,,,,,,,,,,,,,,,,,,,,,
1698692122.556364,1698692122.558116,15.000000,0.000000,4263.589844,4240.000000,4203.077148,4195.384766,4222.563965,0.000000,1.000000,21.000000,,,,0.000000,4.000000,2.000000,4.000000,4.000000,0.000000,50.000000,,,,,,,,,,,,,,,,,,,,,,,,,,,,,,,,
1698692122.564244,1698692122.565896,16.000000,0.000000,4274.871582,4256.410156,4216.922852,4203.589844,4232.820313,0.000000,1.000000,21.000000,,,,0.000000,4.000000,2.000000,4.000000,4.000000,0.000000,50.000000,,,,,,,,,,,,,,,,,,,,,,,,,,,,,,,,
1698692122.572124,1698692122.573676,17.000000,0.000000,4263.589844,4242.051270,4205.128418,4191.794922,4223.589844,0.000000,1.000000,21.000000,,,,0.000000,4.000000,2.000000,4.000000,4.000000,0.000000,50.000000,,,,,,,,,,,,,,,,,,,,,,,,,,,,,,,,
1698692122.580005,1698692122.581456,18.000000,0.000000,4253.846191,4258.461426,4209.230957,4198.974121,4215.384766,0.000000,1.000000,21.000000,,,,0.000000,4.000000,2.000000,4.000000,4.000000,0.000000,50.000000,,,,,,,,,,,,,,,,,,,,,,,,,,,,,,,,
1698692122.587885,1698692122.589237,19.000000,0.000000,4234.871582,4266.666504,4202.563965,4198.461426,4217.436035,0.000000,1.000000,21.000000,,,,0.000000,4.000000,2.000000,4.000000,4.000000,0.000000,50.000000,,,,,,,,,,,,,,,,,,,,,,,,,,,,,,,,
