title:chess game 2, start timestamp:1698692360.886652, stop timestamp:1698692421.572474, headset type:INSIGHT, headset serial:5A688E18, headset firmware:926, channels:53, sampling rate:eeg_128;pow_8, samples:7702      , version:2.2, 
Timestamp,OriginalTimestamp,EEG.Counter,EEG.Interpolated,EEG.AF3,EEG.T7,EEG.Pz,EEG.T8,EEG.AF4,EEG.RawCq,EEG.Battery,EEG.BatteryPercent,MarkerIndex,MarkerType,MarkerValueInt,EEG.MarkerHardware,CQ.AF3,CQ.T7,CQ.Pz,CQ.T8,CQ.AF4,CQ.Overall,EQ.SampleRateQuality,EQ.OVERALL,EQ.AF3,EQ.T7,EQ.Pz,EQ.T8,EQ.AF4,POW.AF3.Theta,POW.AF3.Alpha,POW.AF3.BetaL,POW.AF3.BetaH,POW.AF3.Gamma,POW.T7.Theta,POW.T7.Alpha,POW.T7.BetaL,POW.T7.BetaH,POW.T7.Gamma,POW.Pz.Theta,POW.Pz.Alpha,POW.Pz.BetaL,POW.Pz.BetaH,POW.Pz.Gamma,POW.T8.Theta,POW.T8.Alpha,POW.T8.BetaL,POW.T8.BetaH,POW.T8.Gamma,POW.AF4.Theta,POW.AF4.Alpha,POW.AF4.BetaL,POW.AF4.BetaH,POW.AF4.Gamma
1698692360.886652,1698692360.887799,51.000000,0.000000,4246.153809,4196.922852,4051.281982,4200.000000,4220.512695,0.000000,1.000000,15.000000,,,,0.000000,4.000000,4.000000,4.000000,4.000000,0.000000,66.666664,,,,,,,,,,,,,,,,,,,,,,,,,,,,,,,,
1698692360.894532,1698692360.895579,52.000000,0.000000,4270.256348,4221.538574,4077.435791,4216.922852,4220.512695,0.000000,1.000000,15.000000,,,,0.000000,4.000000,4.000000,4.000000,4.000000,0.000000,66.666664,,,,,,,,,,,,,,,,,,,,,,,,,,,,,,,,
1698692360.902413,1698692360.903559,53.000000,0.000000,4284.102539,4237.948730,4084.102539,4232.820313,4220.000000,0.000000,1.000000,15.000000,,,,0.000000,4.000000,4.000000,4.000000,4.000000,0.000000,66.666664,,,,,,,,,,,,,,,,,,,,,,,,,,,,,,,,
1698692360.910293,1698692360.911340,54.000000,0.000000,4284.102539,4233.846191,4083.589844,4240.512695,4220.512695,0.000000,1.000000,15.000000,,,,0.000000,4.000000,4.000000,4.000000,4.000000,0.000000,66.666664,,,,,,,,,,,,,,,,,,,,,,,,,,,,,,,,
1698692360.918173,1698692360.919320,55.000000,0.000000,4271.282227,4221.538574,4078.974365,4232.307617,4220.512695,0.000000,1.000000,15.000000,,,,0.000000,4.000000,4.000000,4.000000,4.000000,0.000000,66.666664,,,,,,,,,,,,,,,,,,,,,,,,,,,,,,,,
1698692360.926053,1698692360.927100,56.000000,0.000000,4269.743652,4231.794922,4085.128174,4226.666504,4220.512695,0.000000,1.000000,15.000000,,,,0.000000,4.000000,4.000000,4.000000,4.000000,0.000000,66.666664,,,,,,,,,,,,,,,,,,,,,,,,,,,,,,,,
1698692360.933933,1698692360.935080,57.000000,0.000000,4272.307617,4237.948730,4090.256348,4228.205078,4220.000000,0.000000,1.000000,15.000000,,,,0.000000,4.000000,4.000000,4.000000,4.000000,0.000000,66.666664,,,,,,,,,,,,,,,,,,,,,,,,,,,,,,,,
1698692360.941814,1698692360.942860,58.000000,0.000000,4260.000000,4219.487305,4082.051270,4218.974121,4220.512695,0.000000,1.000000,15.000000,,,,0.000000,4.000000,4.000000,4.000000,4.000000,0.000000,66.666664,,,,,,,,,,,,,,,,,,,,,,,,,,,,,,,,
1698692360.949694,1698692360.950641,59.000000,0.000000,4266.153809,4225.641113,4088.205078,4223.077148,4221.025879,0.000000,1.000000,15.000000,,,,0.000000,4.000000,4.000000,4.000000,4.000000,0.000000,66.666664,,,,,,,,,,,,,,,,,,,,,,,,,,,,,,,,
1698692360.957574,1698692360.958421,60.000000,0.000000,4255.384766,4221.538574,4075.897461,4204.615234,4220.512695,0.000000,1.000000,15.000000,,,,0.000000,4.000000,4.000000,4.000000,4.000000,0.000000,66.666664,,,,,,,,,,,,,,,,,,,,,,,,,,,,,,,,
1698692360.965454,1698692360.966201,61.000000,0.000000,4240.512695,4207.179688,4065.128174,4187.179688,4219.487305,0.000000,1.000000,15.000000,,,,0.000000,4.000000,4.000000,4.000000,4.000000,0.000000,66.666664,,,,,,,,33.146652,5.749523,2.761321,1.434271,1.363875,2.121888,1.582619,1.903361,1.148391,1.153722,3.757590,5.554633,2.566452,1.521633,0.809009,3.550139,2.017219,2.015326,1.552173,0.583808,0.152657,0.121874,0.205281,0.099915,0.079184
1698692360.973335,1698692360.973982,62.000000,0.000000,4252.307617,4211.282227,4072.307617,4200.000000,4218.974121,0.000000,1.000000,15.000000,,,,0.000000,4.000000,4.000000,4.000000,4.000000,0.000000,66.666664,,,,,,,,,,,,,,,,,,,,,,,,,,,,,,,,
1698692360.981215,1698692360.981962,63.000000,0.000000,4236.922852,4205.128418,4055.897461,4172.307617,4219.487305,0.000000,1.000000,15.000000,,,,0.000000,4.000000,4.000000,4.000000,4.000000,0.000000,66.666664,,,,,,,,,,,,,,,,,,,,,,,,,,,,,,,,
1698692360.989095,1698692360.989942,64.000000,0.000000,4215.897461,4205.128418,4046.666748,4150.769043,4218.974121,450.000000,1.000000,15.000000,,,,0.000000,4.000000,4.000000,4.000000,4.000000,0.000000,66.666664,,,,,,,,,,,,,,,,,,,,,,,,,,,,,,,,
1698692360.996976,1698692360.997923,65.000000,0.000000,4212.307617,4198.974121,4047.179443,4172.307617,4218.974121,450.000000,1.000000,15.000000,,,,0.000000,4.000000,4.000000,4.000000,4.000000,0.000000,66.666664,,,,,,,,,,,,,,,,,,,,,,,,,,,,,,,,
1698692361.004856,1698692361.005903,66.000000,0.000000,4226.666504,4209.230957,4054.871826,4194.871582,4218.974121,1023.000000,1.000000,15.000000,,,,0.000000,4.000000,4.000000,4.000000,4.000000,0.000000,66.666664,,,,,,,,,,,,,,,,,,,,,,,,,,,,,,,,
1698692361.012736,1698692361.013683,67.000000,0.000000,4250.769043,4229.743652,4069.230713,4197.436035,4218.974121,450.000000,1.000000,15.000000,,,,0.000000,4.000000,4.000000,4.000000,4.000000,0.000000,66.666664,,,,,,,,,,,,,,,,,,,,,,,,,,,,,,,,
1698692361.020616,1698692361.021663,68.000000,0.000000,4243.589844,4207.179688,4051.281982,4187.692383,4218.974121,1023.000000,1.000000,15.000000,,,,0.000000,4.000000,4.000000,4.000000,4.000000,0.000000,66.666664,,,,,,,,,,,,,,,,,,,,,,,,,,,,,,,,
1698692361.028497,1698692361.029444,69.000000,0.000000,4247.692383,4201.025879,4043.589844,4205.128418,4218.974121,450.000000,1.000000,15.000000,,,,0.000000,4.000000,4.000000,4.000000,4.000000,0.000000,66.666664,,,,,,,,,,,,,,,,,,,,,,,,,,,,,,,,
1698692361.036377,1698692361.037224,70.000000,0.000000,4263.589844,4227.692383,4054.871826,4217.436035,4219.487305,1023.000000,1.000000,15.000000,,,,0.000000,4.000000,4.000000,4.000000,4.000000,0.000000,66.666664,,,,,,,,,,,,,,,,,,,,,,,,,,,,,,,,
1698692361.044257,1698692361.045004,71.000000,0.000000,4260.512695,4227.692383,4060.000000,4202.563965,4218.974121,450.000000,1.000000,15.000000,,,,0.000000,4.000000,4.000000,4.000000,4.000000,0.000000,66.666664,,,,,,,,,,,,,,,,,,,,,,,,,,,,,,,,
1698692361.052137,1698692361.052784,72.000000,0.000000,4253.333496,4209.230957,4065.641113,4196.410156,4219.487305,450.000000,1.000000,15.000000,,,,0.000000,4.000000,4.000000,4.000000,4.000000,0.000000,66.666664,,,,,,,,,,,,,,,,,,,,,,,,,,,,,,,,
1698692361.060017,1698692361.060765,73.000000,0.000000,4232.820313,4188.717773,4054.871826,4183.589844,4220.512695,1023.000000,1.000000,15.000000,,,,0.000000,4.000000,4.000000,4.000000,4.000000,0.000000,66.666664,,,,,,,,,,,,,,,,,,,,,,,,,,,,,,,,
1698692361.067898,1698692361.068745,74.000000,0.000000,4233.333496,4192.820313,4049.743652,4177.948730,4221.025879,450.000000,1.000000,15.000000,,,,0.000000,4.000000,4.000000,4.000000,4.000000,0.000000,66.666664,,,,,,,,,,,,,,,,,,,,,,,,,,,,,,,,
1698692361.075778,1698692361.076725,75.000000,0.000000,4232.307617,4194.871582,4036.410156,4170.256348,4221.025879,0.000000,1.000000,15.000000,,,,0.000000,4.000000,4.000000,4.000000,4.000000,0.000000,66.666664,,,,,,,,,,,,,,,,,,,,,,,,,,,,,,,,
1698692361.083658,1698692361.084705,76.000000,0.000000,4209.230957,4180.512695,4023.589844,4152.307617,4221.025879,450.000000,1.000000,15.000000,,,,0.000000,4.000000,4.000000,4.000000,4.000000,0.000000,66.666664,,,,,,,,,,,,,,,,,,,,,,,,,,,,,,,,
1698692361.091539,1698692361.092686,77.000000,0.000000,4224.102539,4192.820313,4051.794922,4169.230957,4221.025879,450.000000,1.000000,15.000000,,,,0.000000,4.000000,4.000000,4.000000,4.000000,0.000000,66.666664,1.000000,50.000000,2.000000,4.000000,4.000000,4.000000,0.000000,23.499447,4.260535,3.189519,1.498782,1.234385,1.626642,1.361361,2.281953,1.282839,1.279666,4.636757,6.615215,3.155956,1.487750,0.852858,2.732808,2.248050,2.440549,1.782973,0.645727,0.103904,0.090972,0.147552,0.075675,0.062362
1698692361.099419,1698692361.100666,78.000000,0.000000,4248.717773,4201.025879,4075.384521,4188.717773,4220.000000,450.000000,1.000000,15.000000,,,,0.000000,4.000000,4.000000,4.000000,4.000000,0.000000,66.666664,,,,,,,,,,,,,,,,,,,,,,,,,,,,,,,,
1698692361.107299,1698692361.108646,79.000000,0.000000,4253.846191,4203.077148,4081.538574,4192.820313,4218.974121,0.000000,1.000000,15.000000,,,,0.000000,4.000000,4.000000,4.000000,4.000000,0.000000,66.666664,,,,,,,,,,,,,,,,,,,,,,,,,,,,,,,,
1698692361.115179,1698692361.116427,80.000000,0.000000,4244.102539,4201.025879,4073.846191,4185.641113,4218.974121,450.000000,1.000000,15.000000,,,,0.000000,4.000000,4.000000,4.000000,4.000000,0.000000,66.666664,,,,,,,,,,,,,,,,,,,,,,,,,,,,,,,,
1698692361.123060,1698692361.124407,81.000000,0.000000,4244.615234,4203.077148,4067.179443,4182.051270,4219.487305,450.000000,1.000000,15.000000,,,,0.000000,4.000000,4.000000,4.000000,4.000000,0.000000,66.666664,,,,,,,,,,,,,,,,,,,,,,,,,,,,,,,,
1698692361.130940,1698692361.132187,82.000000,0.000000,4276.410156,4231.794922,4090.769287,4209.743652,4218.974121,450.000000,1.000000,15.000000,,,,0.000000,4.000000,4.000000,4.000000,4.000000,0.000000,66.666664,,,,,,,,,,,,,,,,,,,,,,,,,,,,,,,,
1698692361.138820,1698692361.140168,83.000000,0.000000,4291.282227,4237.948730,4113.846191,4220.000000,4218.974121,0.000000,1.000000,15.000000,,,,0.000000,4.000000,4.000000,4.000000,4.000000,0.000000,66.666664,,,,,,,,,,,,,,,,,,,,,,,,,,,,,,,,
1698692361.146700,1698692361.147948,84.000000,0.000000,4301.538574,4237.948730,4128.205078,4228.205078,4219.487305,450.000000,1.000000,15.000000,,,,0.000000,4.000000,4.000000,4.000000,4.000000,0.000000,66.666664,,,,,,,,,,,,,,,,,,,,,,,,,,,,,,,,
1698692361.154580,1698692361.155928,85.000000,0.000000,4309.230957,4242.051270,4120.512695,4235.897461,4218.974121,450.000000,1.000000,15.000000,,,,0.000000,4.000000,4.000000,4.000000,4.000000,0.000000,66.666664,,,,,,,,,,,,,,,,,,,,,,,,,,,,,,,,
1698692361.162461,1698692361.163708,86.000000,0.000000,4288.717773,4221.538574,4093.846191,4211.282227,4218.461426,450.000000,1.000000,15.000000,,,,0.000000,4.000000,4.000000,4.000000,4.000000,0.000000,66.666664,,,,,,,,,,,,,,,,,,,,,,,,,,,,,,,,
1698692361.170341,1698692361.171688,87.000000,0.000000,4290.769043,4227.692383,4100.000000,4212.820313,4219.487305,0.000000,1.000000,15.000000,,,,0.000000,4.000000,4.000000,4.000000,4.000000,0.000000,66.666664,,,,,,,,,,,,,,,,,,,,,,,,,,,,,,,,
1698692361.178221,1698692361.179469,88.000000,0.000000,4303.589844,4242.051270,4106.666504,4230.256348,4218.974121,450.000000,1.000000,15.000000,,,,0.000000,4.000000,4.000000,4.000000,4.000000,0.000000,66.666664,,,,,,,,,,,,,,,,,,,,,,,,,,,,,,,,
1698692361.186102,1698692361.187449,89.000000,0.000000,4308.717773,4240.000000,4104.615234,4234.358887,4218.974121,450.000000,1.000000,15.000000,,,,0.000000,4.000000,4.000000,4.000000,4.000000,0.000000,66.666664,,,,,,,,,,,,,,,,,,,,,,,,,,,,,,,,
1698692361.193982,1698692361.195229,90.000000,0.000000,4305.641113,4235.897461,4115.384766,4223.077148,4222.051270,450.000000,1.000000,15.000000,,,,0.000000,4.000000,4.000000,4.000000,4.000000,0.000000,66.666664,,,,,,,,,,,,,,,,,,,,,,,,,,,,,,,,
1698692361.201862,1698692361.203209,91.000000,0.000000,4298.461426,4233.846191,4121.025879,4203.589844,4229.230957,0.000000,1.000000,15.000000,,,,0.000000,4.000000,4.000000,4.000000,4.000000,0.000000,66.666664,,,,,,,,,,,,,,,,,,,,,,,,,,,,,,,,
1698692361.209742,1698692361.210990,92.000000,0.000000,4315.384766,4252.307617,4128.205078,4228.205078,4230.256348,450.000000,1.000000,15.000000,,,,0.000000,4.000000,4.000000,4.000000,4.000000,0.000000,66.666664,,,,,,,,,,,,,,,,,,,,,,,,,,,,,,,,
1698692361.217623,1698692361.218970,93.000000,0.000000,4321.025879,4252.307617,4131.794922,4241.538574,4225.128418,450.000000,1.000000,15.000000,,,,0.000000,4.000000,4.000000,4.000000,4.000000,0.000000,66.666664,,,,,,,,14.686651,3.240742,3.503630,1.523001,1.033138,1.588051,1.454764,2.688378,1.390171,1.305539,6.024752,7.620171,3.494256,1.432337,0.889593,2.324701,2.554925,2.708848,1.958869,0.725174,0.069873,0.073222,0.093667,0.055794,0.046323
1698692361.225503,1698692361.226750,94.000000,0.000000,4310.769043,4244.102539,4138.461426,4211.282227,4225.128418,450.000000,1.000000,15.000000,,,,0.000000,4.000000,4.000000,4.000000,4.000000,0.000000,66.666664,,,,,,,,,,,,,,,,,,,,,,,,,,,,,,,,
1698692361.233383,1698692361.234730,95.000000,0.000000,4297.436035,4235.897461,4136.410156,4195.897461,4226.666504,0.000000,1.000000,15.000000,,,,0.000000,4.000000,4.000000,4.000000,4.000000,0.000000,66.666664,,,,,,,,,,,,,,,,,,,,,,,,,,,,,,,,
1698692361.241263,1698692361.242510,96.000000,0.000000,4278.974121,4211.282227,4112.307617,4196.922852,4218.974121,450.000000,1.000000,15.000000,,,,0.000000,4.000000,4.000000,4.000000,4.000000,0.000000,66.666664,,,,,,,,,,,,,,,,,,,,,,,,,,,,,,,,
1698692361.249143,1698692361.250291,97.000000,0.000000,4294.358887,4217.436035,4121.025879,4212.307617,4216.410156,450.000000,1.000000,15.000000,,,,0.000000,4.000000,4.000000,4.000000,4.000000,0.000000,66.666664,,,,,,,,,,,,,,,,,,,,,,,,,,,,,,,,
1698692361.257024,1698692361.258071,98.000000,0.000000,4304.102539,4223.589844,4129.230957,4203.589844,4227.692383,450.000000,1.000000,15.000000,,,,0.000000,4.000000,4.000000,4.000000,4.000000,0.000000,66.666664,,,,,,,,,,,,,,,,,,,,,,,,,,,,,,,,
1698692361.264904,1698692361.265851,99.000000,0.000000,4295.897461,4223.589844,4123.589844,4180.512695,4229.230957,0.000000,1.000000,15.000000,,,,0.000000,4.000000,4.000000,4.000000,4.000000,0.000000,66.666664,,,,,,,,,,,,,,,,,,,,,,,,,,,,,,,,
1698692361.272784,1698692361.273632,100.000000,0.000000,4298.974121,4246.153809,4135.384766,4195.897461,4217.948730,450.000000,1.000000,15.000000,,,,0.000000,4.000000,4.000000,4.000000,4.000000,0.000000,66.666664,,,,,,,,,,,,,,,,,,,,,,,,,,,,,,,,
1698692361.280665,1698692361.281412,101.000000,0.000000,4286.666504,4244.102539,4132.820313,4211.282227,4217.948730,450.000000,1.000000,15.000000,,,,0.000000,4.000000,4.000000,4.000000,4.000000,0.000000,66.666664,,,,,,,,,,,,,,,,,,,,,,,,,,,,,,,,
1698692361.288545,1698692361.289192,102.000000,0.000000,4297.436035,4231.794922,4137.436035,4226.666504,4221.025879,450.000000,1.000000,15.000000,,,,0.000000,4.000000,4.000000,4.000000,4.000000,0.000000,66.666664,,,,,,,,,,,,,,,,,,,,,,,,,,,,,,,,
1698692361.296425,1698692361.296973,103.000000,0.000000,4309.743652,4223.589844,4140.000000,4225.128418,4218.461426,0.000000,1.000000,15.000000,,,,0.000000,4.000000,4.000000,4.000000,4.000000,0.000000,66.666664,,,,,,,,,,,,,,,,,,,,,,,,,,,,,,,,
1698692361.304305,1698692361.304753,104.000000,0.000000,4275.897461,4217.436035,4129.230957,4201.025879,4216.410156,450.000000,1.000000,15.000000,,,,0.000000,4.000000,4.000000,4.000000,4.000000,0.000000,66.666664,,,,,,,,,,,,,,,,,,,,,,,,,,,,,,,,
1698692361.312186,1698692361.312733,105.000000,0.000000,4253.846191,4215.384766,4127.692383,4197.948730,4218.974121,450.000000,1.000000,15.000000,,,,0.000000,4.000000,4.000000,4.000000,4.000000,0.000000,66.666664,,,,,,,,,,,,,,,,,,,,,,,,,,,,,,,,
1698692361.320066,1698692361.320713,106.000000,0.000000,4263.589844,4205.128418,4120.000000,4204.102539,4218.974121,450.000000,1.000000,15.000000,,,,0.000000,4.000000,4.000000,4.000000,4.000000,0.000000,66.666664,,,,,,,,,,,,,,,,,,,,,,,,,,,,,,,,
1698692361.327946,1698692361.328494,107.000000,0.000000,4279.487305,4221.538574,4117.948730,4209.230957,4217.948730,0.000000,1.000000,15.000000,,,,0.000000,4.000000,4.000000,4.000000,4.000000,0.000000,66.666664,,,,,,,,,,,,,,,,,,,,,,,,,,,,,,,,
1698692361.335826,1698692361.336274,108.000000,0.000000,4272.307617,4229.743652,4109.230957,4193.333496,4218.461426,450.000000,1.000000,15.000000,,,,0.000000,4.000000,4.000000,4.000000,4.000000,0.000000,66.666664,,,,,,,,,,,,,,,,,,,,,,,,,,,,,,,,
1698692361.343707,1698692361.344054,109.000000,0.000000,4252.307617,4207.179688,4101.538574,4180.000000,4220.512695,450.000000,1.000000,15.000000,,,,0.000000,4.000000,4.000000,4.000000,4.000000,0.000000,66.666664,,,,,,,,8.462850,2.944124,3.626532,1.478632,0.820841,1.878953,1.881967,2.995518,1.421811,1.219455,7.588377,8.368782,3.469048,1.406395,0.911015,2.261975,3.077317,2.741023,2.029344,0.804367,0.058151,0.073058,0.056896,0.045826,0.035196
1698692361.351587,1698692361.351835,110.000000,0.000000,4245.128418,4198.974121,4105.641113,4192.820313,4220.512695,450.000000,1.000000,15.000000,,,,0.000000,4.000000,4.000000,4.000000,4.000000,0.000000,66.666664,,,,,,,,,,,,,,,,,,,,,,,,,,,,,,,,
1698692361.359467,1698692361.359615,111.000000,0.000000,4231.794922,4194.871582,4093.333252,4184.615234,4218.974121,0.000000,1.000000,15.000000,,,,0.000000,4.000000,4.000000,4.000000,4.000000,0.000000,66.666664,,,,,,,,,,,,,,,,,,,,,,,,,,,,,,,,
1698692361.367347,1698692361.367395,112.000000,0.000000,4240.000000,4201.025879,4100.000000,4191.282227,4218.974121,450.000000,1.000000,15.000000,,,,0.000000,4.000000,4.000000,4.000000,4.000000,0.000000,66.666664,,,,,,,,,,,,,,,,,,,,,,,,,,,,,,,,
1698692361.375228,1698692361.375376,113.000000,0.000000,4247.179688,4209.230957,4112.820313,4201.538574,4219.487305,450.000000,1.000000,15.000000,,,,0.000000,4.000000,4.000000,4.000000,4.000000,0.000000,66.666664,,,,,,,,,,,,,,,,,,,,,,,,,,,,,,,,
1698692361.383108,1698692361.383356,114.000000,0.000000,4223.589844,4205.128418,4105.128418,4178.461426,4218.974121,450.000000,1.000000,15.000000,,,,0.000000,4.000000,4.000000,4.000000,4.000000,0.000000,66.666664,,,,,,,,,,,,,,,,,,,,,,,,,,,,,,,,
1698692361.390988,1698692361.391336,115.000000,0.000000,4227.179688,4223.589844,4114.871582,4177.436035,4219.487305,0.000000,1.000000,15.000000,,,,0.000000,4.000000,4.000000,4.000000,4.000000,0.000000,66.666664,,,,,,,,,,,,,,,,,,,,,,,,,,,,,,,,
1698692361.398868,1698692361.399316,116.000000,0.000000,4233.846191,4227.692383,4120.512695,4197.948730,4219.487305,450.000000,1.000000,15.000000,,,,0.000000,4.000000,4.000000,4.000000,4.000000,0.000000,66.666664,,,,,,,,,,,,,,,,,,,,,,,,,,,,,,,,
1698692361.406749,1698692361.407296,117.000000,0.000000,4229.743652,4217.436035,4124.102539,4211.794922,4218.974121,450.000000,1.000000,15.000000,,,,0.000000,4.000000,4.000000,4.000000,4.000000,0.000000,66.666664,,,,,,,,,,,,,,,,,,,,,,,,,,,,,,,,
1698692361.414629,1698692361.415277,118.000000,0.000000,4225.641113,4205.128418,4125.641113,4205.641113,4218.461426,450.000000,1.000000,15.000000,,,,0.000000,4.000000,4.000000,4.000000,4.000000,0.000000,66.666664,,,,,,,,,,,,,,,,,,,,,,,,,,,,,,,,
1698692361.422509,1698692361.423257,119.000000,0.000000,4211.794922,4194.871582,4126.153809,4197.948730,4219.487305,0.000000,1.000000,15.000000,,,,0.000000,4.000000,4.000000,4.000000,4.000000,0.000000,66.666664,,,,,,,,,,,,,,,,,,,,,,,,,,,,,,,,
1698692361.430389,1698692361.431237,120.000000,0.000000,4208.717773,4207.179688,4141.025879,4210.256348,4218.974121,450.000000,1.000000,15.000000,,,,0.000000,4.000000,4.000000,4.000000,4.000000,0.000000,66.666664,,,,,,,,,,,,,,,,,,,,,,,,,,,,,,,,
1698692361.438270,1698692361.439217,121.000000,0.000000,4206.153809,4198.974121,4125.641113,4187.179688,4219.487305,450.000000,1.000000,15.000000,,,,0.000000,4.000000,4.000000,4.000000,4.000000,0.000000,66.666664,,,,,,,,,,,,,,,,,,,,,,,,,,,,,,,,
1698692361.446150,1698692361.446998,122.000000,0.000000,4218.974121,4207.179688,4113.846191,4173.333496,4221.538574,450.000000,1.000000,15.000000,,,,0.000000,4.000000,4.000000,4.000000,4.000000,0.000000,66.666664,,,,,,,,,,,,,,,,,,,,,,,,,,,,,,,,
1698692361.454030,1698692361.454978,123.000000,0.000000,4224.615234,4235.897461,4132.820313,4202.051270,4227.692383,0.000000,1.000000,15.000000,,,,0.000000,4.000000,4.000000,4.000000,4.000000,0.000000,66.666664,,,,,,,,,,,,,,,,,,,,,,,,,,,,,,,,
1698692361.461910,1698692361.462758,124.000000,0.000000,4214.871582,4215.384766,4129.743652,4209.743652,4231.282227,450.000000,1.000000,15.000000,,,,0.000000,4.000000,4.000000,4.000000,4.000000,0.000000,66.666664,,,,,,,,,,,,,,,,,,,,,,,,,,,,,,,,
1698692361.469791,1698692361.470738,125.000000,0.000000,4253.846191,4209.230957,4131.282227,4207.179688,4224.615234,450.000000,1.000000,15.000000,,,,0.000000,4.000000,4.000000,4.000000,4.000000,0.000000,66.666664,,,,,,,,5.211398,3.445709,3.539919,1.364905,0.655181,2.402098,2.594446,3.108454,1.364179,1.057506,9.067901,8.707387,3.104807,1.455350,0.908635,2.544875,3.973723,2.545519,1.970302,0.875649,0.067378,0.086459,0.042712,0.046343,0.030829
1698692361.477671,1698692361.478519,126.000000,0.000000,4281.025879,4231.794922,4143.589844,4197.436035,4217.436035,450.000000,1.000000,15.000000,,,,0.000000,4.000000,4.000000,4.000000,4.000000,0.000000,66.666664,,,,,,,,,,,,,,,,,,,,,,,,,,,,,,,,
1698692361.485551,1698692361.486499,127.000000,0.000000,4261.538574,4229.743652,4141.538574,4190.256348,4217.948730,228.000000,1.000000,15.000000,,,,0.000000,4.000000,4.000000,4.000000,4.000000,0.000000,66.666664,,,,,,,,,,,,,,,,,,,,,,,,,,,,,,,,
1698692361.493431,1698692361.494279,0.000000,0.000000,4241.538574,4205.128418,4127.692383,4196.922852,4219.487305,450.000000,1.000000,15.000000,,,,0.000000,4.000000,4.000000,4.000000,4.000000,0.000000,66.666664,,,,,,,,,,,,,,,,,,,,,,,,,,,,,,,,
1698692361.501312,1698692361.502259,1.000000,0.000000,4228.205078,4194.871582,4119.487305,4187.692383,4218.461426,450.000000,1.000000,15.000000,,,,0.000000,4.000000,4.000000,4.000000,4.000000,0.000000,66.666664,,,,,,,,,,,,,,,,,,,,,,,,,,,,,,,,
1698692361.509192,1698692361.510039,2.000000,0.000000,4237.436035,4215.384766,4131.282227,4191.282227,4218.974121,272.000000,1.000000,15.000000,,,,0.000000,2.000000,4.000000,4.000000,4.000000,0.000000,50.000000,,,,,,,,,,,,,,,,,,,,,,,,,,,,,,,,
1698692361.517072,1698692361.518020,3.000000,0.000000,4234.358887,4203.077148,4124.615234,4202.563965,4217.948730,450.000000,1.000000,15.000000,,,,0.000000,2.000000,4.000000,4.000000,4.000000,0.000000,50.000000,,,,,,,,,,,,,,,,,,,,,,,,,,,,,,,,
1698692361.524952,1698692361.526000,4.000000,0.000000,4231.794922,4190.769043,4123.589844,4214.358887,4218.974121,299.000000,1.000000,15.000000,,,,0.000000,2.000000,2.000000,4.000000,4.000000,0.000000,33.333332,,,,,,,,,,,,,,,,,,,,,,,,,,,,,,,,
1698692361.532833,1698692361.533980,5.000000,0.000000,4241.025879,4207.179688,4133.846191,4211.282227,4231.282227,450.000000,1.000000,15.000000,,,,0.000000,2.000000,2.000000,4.000000,4.000000,0.000000,33.333332,,,,,,,,,,,,,,,,,,,,,,,,,,,,,,,,
1698692361.540713,1698692361.541961,6.000000,0.000000,4210.256348,4184.615234,4116.410156,4178.974121,4234.358887,299.000000,1.000000,15.000000,,,,0.000000,2.000000,2.000000,2.000000,4.000000,0.000000,33.333332,,,,,,,,,,,,,,,,,,,,,,,,,,,,,,,,
1698692361.548593,1698692361.549941,7.000000,0.000000,4198.974121,4176.410156,4118.974121,4177.948730,4222.563965,450.000000,1.000000,15.000000,,,,0.000000,2.000000,2.000000,2.000000,4.000000,0.000000,33.333332,,,,,,,,,,,,,,,,,,,,,,,,,,,,,,,,
1698692361.556473,1698692361.557721,8.000000,0.000000,4204.102539,4186.666504,4123.077148,4183.077148,4216.410156,450.000000,1.000000,15.000000,,,,0.000000,2.000000,2.000000,2.000000,4.000000,0.000000,33.333332,,,,,,,,,,,,,,,,,,,,,,,,,,,,,,,,
1698692361.564354,1698692361.565502,9.000000,0.000000,4189.230957,4184.615234,4117.948730,4181.025879,4219.487305,1023.000000,1.000000,15.000000,,,,0.000000,2.000000,2.000000,2.000000,4.000000,0.000000,33.333332,,,,,,,,,,,,,,,,,,,,,,,,,,,,,,,,
1698692361.572234,1698692361.573282,10.000000,0.000000,4201.538574,4188.717773,4141.538574,4208.205078,4220.000000,450.000000,1.000000,15.000000,,,,0.000000,2.000000,2.000000,2.000000,4.000000,0.000000,33.333332,,,,,,,,,,,,,,,,,,,,,,,,,,,,,,,,
1698692361.580114,1698692361.581262,11.000000,0.000000,4214.871582,4188.717773,4158.461426,4214.358887,4217.436035,0.000000,1.000000,15.000000,,,,0.000000,2.000000,2.000000,2.000000,4.000000,0.000000,33.333332,,,,,,,,,,,,,,,,,,,,,,,,,,,,,,,,
1698692361.587994,1698692361.589042,12.000000,0.000000,4208.717773,4192.820313,4158.974121,4205.128418,4216.410156,450.000000,1.000000,15.000000,,,,0.000000,2.000000,2.000000,2.000000,4.000000,0.000000,33.333332,,,,,,,,,,,,,,,,,,,,,,,,,,,,,,,,
1698692361.595875,1698692361.596823,13.000000,0.000000,4194.358887,4184.615234,4146.153809,4198.974121,4223.077148,450.000000,1.000000,15.000000,,,,0.000000,2.000000,2.000000,2.000000,4.000000,0.000000,33.333332,1.000000,33.333332,2.000000,2.000000,2.000000,4.000000,0.000000,3.956125,4.522755,3.294486,1.216254,0.574230,3.095021,3.430990,3.005945,1.249051,0.880720,10.175680,8.548016,2.554605,1.581527,0.875229,3.114491,5.228618,2.206628,1.796374,0.944032,0.090333,0.104610,0.047376,0.053656,0.032519
1698692361.603755,1698692361.604603,14.000000,0.000000,4197.948730,4184.615234,4143.589844,4191.794922,4228.717773,450.000000,1.000000,15.000000,,,,0.000000,2.000000,2.000000,2.000000,4.000000,0.000000,33.333332,,,,,,,,,,,,,,,,,,,,,,,,,,,,,,,,
1698692361.611635,1698692361.612583,15.000000,0.000000,4214.358887,4201.025879,4158.974121,4201.538574,4223.077148,0.000000,1.000000,15.000000,,,,0.000000,2.000000,2.000000,2.000000,4.000000,0.000000,33.333332,,,,,,,,,,,,,,,,,,,,,,,,,,,,,,,,
1698692361.619516,1698692361.620564,16.000000,0.000000,4203.589844,4188.717773,4151.794922,4197.436035,4216.922852,0.000000,1.000000,15.000000,,,,0.000000,2.000000,2.000000,2.000000,4.000000,0.000000,33.333332,,,,,,,,,,,,,,,,,,,,,,,,,,,,,,,,
1698692361.627396,1698692361.628544,17.000000,0.000000,4207.692383,4196.922852,4154.871582,4200.000000,4218.974121,0.000000,1.000000,15.000000,,,,0.000000,2.000000,2.000000,2.000000,4.000000,0.000000,33.333332,,,,,,,,,,,,,,,,,,,,,,,,,,,,,,,,
1698692361.635276,1698692361.636524,18.000000,0.000000,4218.461426,4215.384766,4165.641113,4219.487305,4220.512695,0.000000,1.000000,15.000000,,,,0.000000,2.000000,2.000000,2.000000,4.000000,0.000000,33.333332,,,,,,,,,,,,,,,,,,,,,,,,,,,,,,,,
1698692361.643156,1698692361.644304,19.000000,0.000000,4211.282227,4207.179688,4162.051270,4224.615234,4218.974121,0.000000,1.000000,15.000000,,,,0.000000,2.000000,2.000000,2.000000,4.000000,0.000000,33.333332,,,,,,,,,,,,,,,,,,,,,,,,,,,,,,,,
1698692361.651036,1698692361.652085,20.000000,0.000000,4221.538574,4203.077148,4171.794922,4215.384766,4220.512695,0.000000,1.000000,15.000000,,,,0.000000,2.000000,2.000000,2.000000,4.000000,0.000000,33.333332,,,,,,,,,,,,,,,,,,,,,,,,,,,,,,,,
1698692361.658917,1698692361.659865,21.000000,0.000000,4222.563965,4201.025879,4173.846191,4197.948730,4220.512695,0.000000,1.000000,15.000000,,,,0.000000,2.000000,2.000000,2.000000,4.000000,0.000000,33.333332,,,,,,,,,,,,,,,,,,,,,,,,,,,,,,,,
1698692361.666797,1698692361.667645,22.000000,0.000000,4221.538574,4198.974121,4173.333496,4207.179688,4220.000000,0.000000,1.000000,15.000000,,,,0.000000,2.000000,2.000000,2.000000,4.000000,0.000000,33.333332,,,,,,,,,,,,,,,,,,,,,,,,,,,,,,,,
1698692361.674677,1698692361.675626,23.000000,0.000000,4227.179688,4201.025879,4175.897461,4218.974121,4220.512695,0.000000,1.000000,15.000000,,,,0.000000,2.000000,2.000000,2.000000,4.000000,0.000000,33.333332,,,,,,,,,,,,,,,,,,,,,,,,,,,,,,,,
1698692361.682557,1698692361.683606,24.000000,0.000000,4228.717773,4205.128418,4181.025879,4214.871582,4220.512695,0.000000,1.000000,15.000000,,,,0.000000,2.000000,2.000000,2.000000,4.000000,0.000000,33.333332,,,,,,,,,,,,,,,,,,,,,,,,,,,,,,,,
1698692361.690438,1698692361.691586,25.000000,0.000000,4245.641113,4229.743652,4205.128418,4235.897461,4220.512695,0.000000,1.000000,15.000000,,,,0.000000,2.000000,2.000000,2.000000,4.000000,0.000000,33.333332,,,,,,,,,,,,,,,,,,,,,,,,,,,,,,,,
1698692361.698318,1698692361.699566,26.000000,0.000000,4243.589844,4223.589844,4200.000000,4230.256348,4220.512695,0.000000,1.000000,15.000000,,,,0.000000,2.000000,2.000000,2.000000,4.000000,0.000000,33.333332,,,,,,,,,,,,,,,,,,,,,,,,,,,,,,,,
1698692361.706198,1698692361.707547,27.000000,0.000000,4238.461426,4198.974121,4179.487305,4205.641113,4221.025879,0.000000,1.000000,15.000000,,,,0.000000,2.000000,2.000000,2.000000,4.000000,0.000000,33.333332,,,,,,,,,,,,,,,,,,,,,,,,,,,,,,,,
1698692361.714079,1698692361.715527,28.000000,0.000000,4246.666504,4194.871582,4171.282227,4203.589844,4221.025879,0.000000,1.000000,15.000000,,,,0.000000,2.000000,2.000000,2.000000,4.000000,0.000000,33.333332,,,,,,,,,,,,,,,,,,,,,,,,,,,,,,,,
1698692361.721959,1698692361.723507,29.000000,0.000000,4241.538574,4198.974121,4163.077148,4204.615234,4221.025879,0.000000,1.000000,15.000000,,,,0.000000,2.000000,2.000000,2.000000,4.000000,0.000000,33.333332,,,,,,,,3.677858,5.763945,2.976574,1.082290,0.584366,3.827755,4.181077,2.751324,1.137221,0.744258,10.603094,7.899431,1.997592,1.739591,0.809734,3.794949,6.600158,1.834272,1.566908,1.016474,0.118115,0.119358,0.063275,0.061847,0.038083
1698692361.729839,1698692361.731287,30.000000,0.000000,4242.051270,4215.384766,4174.358887,4216.922852,4221.538574,0.000000,1.000000,15.000000,,,,0.000000,2.000000,2.000000,2.000000,4.000000,0.000000,33.333332,,,,,,,,,,,,,,,,,,,,,,,,,,,,,,,,
1698692361.737719,1698692361.739268,31.000000,0.000000,4232.820313,4196.922852,4178.461426,4203.589844,4221.025879,0.000000,1.000000,15.000000,,,,0.000000,2.000000,2.000000,2.000000,4.000000,0.000000,33.333332,,,,,,,,,,,,,,,,,,,,,,,,,,,,,,,,
1698692361.745599,1698692361.747048,32.000000,0.000000,4221.025879,4174.358887,4177.948730,4176.410156,4219.487305,0.000000,1.000000,15.000000,,,,0.000000,2.000000,2.000000,2.000000,4.000000,0.000000,33.333332,,,,,,,,,,,,,,,,,,,,,,,,,,,,,,,,
1698692361.753480,1698692361.755028,33.000000,0.000000,4213.333496,4186.666504,4182.563965,4182.051270,4217.436035,0.000000,1.000000,15.000000,,,,0.000000,2.000000,2.000000,2.000000,4.000000,0.000000,33.333332,,,,,,,,,,,,,,,,,,,,,,,,,,,,,,,,
1698692361.761360,1698692361.762808,34.000000,0.000000,4200.000000,4190.769043,4180.512695,4197.436035,4217.436035,0.000000,1.000000,15.000000,,,,0.000000,2.000000,2.000000,2.000000,4.000000,0.000000,33.333332,,,,,,,,,,,,,,,,,,,,,,,,,,,,,,,,
1698692361.769240,1698692361.770788,35.000000,0.000000,4225.641113,4192.820313,4191.282227,4206.153809,4220.000000,0.000000,1.000000,15.000000,,,,0.000000,2.000000,2.000000,2.000000,4.000000,0.000000,33.333332,,,,,,,,,,,,,,,,,,,,,,,,,,,,,,,,
1698692361.777120,1698692361.778569,36.000000,0.000000,4248.205078,4188.717773,4184.102539,4191.282227,4217.436035,0.000000,1.000000,15.000000,,,,0.000000,2.000000,2.000000,2.000000,4.000000,0.000000,33.333332,,,,,,,,,,,,,,,,,,,,,,,,,,,,,,,,
1698692361.785001,1698692361.786549,37.000000,0.000000,4241.538574,4184.615234,4174.358887,4186.666504,4219.487305,0.000000,1.000000,15.000000,,,,0.000000,2.000000,2.000000,2.000000,4.000000,0.000000,33.333332,,,,,,,,,,,,,,,,,,,,,,,,,,,,,,,,
1698692361.792881,1698692361.794329,38.000000,0.000000,4241.025879,4190.769043,4177.948730,4196.410156,4231.282227,0.000000,1.000000,15.000000,,,,0.000000,2.000000,2.000000,2.000000,4.000000,0.000000,33.333332,,,,,,,,,,,,,,,,,,,,,,,,,,,,,,,,
1698692361.800761,1698692361.802309,39.000000,0.000000,4234.871582,4184.615234,4165.641113,4182.563965,4230.256348,0.000000,1.000000,15.000000,,,,0.000000,2.000000,2.000000,2.000000,4.000000,0.000000,33.333332,,,,,,,,,,,,,,,,,,,,,,,,,,,,,,,,
1698692361.808642,1698692361.810090,40.000000,0.000000,4231.794922,4192.820313,4165.128418,4187.179688,4217.436035,0.000000,1.000000,15.000000,,,,0.000000,2.000000,2.000000,2.000000,4.000000,0.000000,33.333332,,,,,,,,,,,,,,,,,,,,,,,,,,,,,,,,
1698692361.816522,1698692361.818070,41.000000,0.000000,4217.948730,4180.512695,4157.948730,4188.205078,4217.436035,0.000000,1.000000,15.000000,,,,0.000000,2.000000,2.000000,2.000000,4.000000,0.000000,33.333332,,,,,,,,,,,,,,,,,,,,,,,,,,,,,,,,
1698692361.824402,1698692361.825850,42.000000,0.000000,4214.358887,4170.256348,4142.563965,4184.615234,4222.563965,0.000000,1.000000,15.000000,,,,0.000000,2.000000,2.000000,2.000000,4.000000,0.000000,33.333332,,,,,,,,,,,,,,,,,,,,,,,,,,,,,,,,
1698692361.832282,1698692361.833830,43.000000,0.000000,4229.743652,4190.769043,4147.692383,4193.333496,4219.487305,0.000000,1.000000,15.000000,,,,0.000000,2.000000,2.000000,2.000000,4.000000,0.000000,33.333332,,,,,,,,,,,,,,,,,,,,,,,,,,,,,,,,
1698692361.840162,1698692361.841610,44.000000,0.000000,4214.358887,4184.615234,4149.230957,4172.307617,4218.974121,0.000000,1.000000,15.000000,,,,0.000000,2.000000,2.000000,2.000000,4.000000,0.000000,33.333332,,,,,,,,,,,,,,,,,,,,,,,,,,,,,,,,
1698692361.848043,1698692361.849591,45.000000,0.000000,4206.153809,4170.256348,4152.820313,4173.333496,4221.025879,0.000000,1.000000,15.000000,,,,0.000000,2.000000,2.000000,2.000000,4.000000,0.000000,33.333332,,,,,,,,3.918175,6.741493,2.674173,1.008123,0.663445,4.439602,4.639876,2.432242,1.080288,0.672453,10.432905,6.904890,1.551659,1.854694,0.719924,4.482228,7.685972,1.507052,1.369817,1.090987,0.143522,0.127330,0.087818,0.066747,0.045570
1698692361.855923,1698692361.857371,46.000000,0.000000,4206.666504,4162.051270,4142.051270,4192.307617,4218.974121,0.000000,1.000000,15.000000,,,,0.000000,2.000000,2.000000,2.000000,4.000000,0.000000,33.333332,,,,,,,,,,,,,,,,,,,,,,,,,,,,,,,,
1698692361.863803,1698692361.865151,47.000000,0.000000,4202.563965,4162.051270,4135.897461,4190.769043,4218.461426,0.000000,1.000000,15.000000,,,,0.000000,2.000000,2.000000,2.000000,4.000000,0.000000,33.333332,,,,,,,,,,,,,,,,,,,,,,,,,,,,,,,,
1698692361.871683,1698692361.872932,48.000000,0.000000,4211.794922,4174.358887,4148.205078,4197.436035,4219.487305,0.000000,1.000000,15.000000,,,,0.000000,2.000000,2.000000,2.000000,4.000000,0.000000,33.333332,,,,,,,,,,,,,,,,,,,,,,,,,,,,,,,,
1698692361.879564,1698692361.880712,49.000000,0.000000,4202.051270,4157.948730,4133.333496,4183.077148,4220.512695,0.000000,1.000000,15.000000,,,,0.000000,2.000000,2.000000,2.000000,4.000000,0.000000,33.333332,,,,,,,,,,,,,,,,,,,,,,,,,,,,,,,,
1698692361.887444,1698692361.888492,50.000000,0.000000,4207.179688,4155.897461,4136.922852,4168.205078,4217.948730,0.000000,1.000000,15.000000,,,,0.000000,2.000000,2.000000,2.000000,4.000000,0.000000,33.333332,,,,,,,,,,,,,,,,,,,,,,,,,,,,,,,,
1698692361.895324,1698692361.896272,51.000000,0.000000,4224.102539,4168.205078,4156.922852,4177.436035,4218.974121,0.000000,1.000000,15.000000,,,,0.000000,2.000000,2.000000,2.000000,4.000000,0.000000,33.333332,,,,,,,,,,,,,,,,,,,,,,,,,,,,,,,,
1698692361.903205,1698692361.904053,52.000000,0.000000,4208.205078,4155.897461,4143.077148,4176.922852,4225.641113,0.000000,1.000000,15.000000,,,,0.000000,2.000000,2.000000,2.000000,4.000000,0.000000,33.333332,,,,,,,,,,,,,,,,,,,,,,,,,,,,,,,,
1698692361.911085,1698692361.911833,53.000000,0.000000,4193.333496,4153.846191,4140.512695,4153.846191,4224.102539,0.000000,1.000000,15.000000,,,,0.000000,2.000000,2.000000,2.000000,4.000000,0.000000,33.333332,,,,,,,,,,,,,,,,,,,,,,,,,,,,,,,,
1698692361.918965,1698692361.919613,54.000000,0.000000,4187.179688,4162.051270,4156.410156,4144.102539,4216.410156,0.000000,1.000000,15.000000,,,,0.000000,2.000000,2.000000,2.000000,4.000000,0.000000,33.333332,,,,,,,,,,,,,,,,,,,,,,,,,,,,,,,,
1698692361.926845,1698692361.927594,55.000000,0.000000,4196.410156,4172.307617,4164.102539,4183.077148,4216.922852,0.000000,1.000000,15.000000,,,,0.000000,2.000000,2.000000,2.000000,4.000000,0.000000,33.333332,,,,,,,,,,,,,,,,,,,,,,,,,,,,,,,,
1698692361.934726,1698692361.935574,56.000000,0.000000,4205.128418,4164.102539,4158.461426,4203.589844,4218.974121,0.000000,1.000000,15.000000,,,,0.000000,2.000000,2.000000,2.000000,4.000000,0.000000,33.333332,,,,,,,,,,,,,,,,,,,,,,,,,,,,,,,,
1698692361.942606,1698692361.943354,57.000000,0.000000,4204.102539,4160.000000,4164.102539,4182.563965,4218.461426,0.000000,1.000000,15.000000,,,,0.000000,2.000000,2.000000,2.000000,4.000000,0.000000,33.333332,,,,,,,,,,,,,,,,,,,,,,,,,,,,,,,,
1698692361.950486,1698692361.951134,58.000000,0.000000,4214.871582,4176.410156,4176.410156,4176.922852,4216.922852,0.000000,1.000000,15.000000,,,,0.000000,2.000000,2.000000,2.000000,4.000000,0.000000,33.333332,,,,,,,,,,,,,,,,,,,,,,,,,,,,,,,,
1698692361.958366,1698692361.958915,59.000000,0.000000,4222.563965,4172.307617,4166.666504,4175.897461,4218.461426,0.000000,1.000000,15.000000,,,,0.000000,2.000000,2.000000,2.000000,4.000000,0.000000,33.333332,,,,,,,,,,,,,,,,,,,,,,,,,,,,,,,,
1698692361.966246,1698692361.966695,60.000000,0.000000,4237.436035,4178.461426,4178.974121,4182.563965,4225.128418,0.000000,1.000000,15.000000,,,,0.000000,2.000000,2.000000,2.000000,4.000000,0.000000,33.333332,,,,,,,,,,,,,,,,,,,,,,,,,,,,,,,,
1698692361.974127,1698692361.974475,61.000000,0.000000,4237.948730,4194.871582,4182.051270,4182.563965,4234.871582,0.000000,1.000000,15.000000,,,,0.000000,2.000000,2.000000,2.000000,4.000000,0.000000,33.333332,,,,,,,,4.620473,7.146956,2.443363,1.016266,0.776044,4.882208,4.671250,2.121066,1.098734,0.655807,9.830502,5.766381,1.239692,1.867132,0.620453,5.054298,8.096034,1.248675,1.283176,1.154296,0.159547,0.130553,0.123265,0.067467,0.054144
1698692361.982007,1698692361.982256,62.000000,0.000000,4221.025879,4178.461426,4156.922852,4165.128418,4231.282227,0.000000,1.000000,15.000000,,,,0.000000,2.000000,2.000000,2.000000,4.000000,0.000000,33.333332,,,,,,,,,,,,,,,,,,,,,,,,,,,,,,,,
1698692361.989887,1698692361.990236,63.000000,0.000000,4230.256348,4180.512695,4173.333496,4182.051270,4220.512695,0.000000,1.000000,15.000000,,,,0.000000,2.000000,2.000000,2.000000,4.000000,0.000000,33.333332,,,,,,,,,,,,,,,,,,,,,,,,,,,,,,,,
1698692361.997768,1698692361.998216,64.000000,0.000000,4216.922852,4186.666504,4183.077148,4181.538574,4217.436035,450.000000,1.000000,15.000000,,,,0.000000,2.000000,2.000000,2.000000,4.000000,0.000000,33.333332,,,,,,,,,,,,,,,,,,,,,,,,,,,,,,,,
1698692362.005648,1698692362.006197,65.000000,0.000000,4195.384766,4178.461426,4162.563965,4155.897461,4217.948730,450.000000,1.000000,15.000000,,,,0.000000,2.000000,2.000000,2.000000,4.000000,0.000000,33.333332,,,,,,,,,,,,,,,,,,,,,,,,,,,,,,,,
1698692362.013528,1698692362.014177,66.000000,0.000000,4200.000000,4180.512695,4158.461426,4170.256348,4217.436035,1023.000000,1.000000,15.000000,,,,0.000000,4.000000,2.000000,2.000000,4.000000,0.000000,33.333332,,,,,,,,,,,,,,,,,,,,,,,,,,,,,,,,
1698692362.021408,1698692362.022157,67.000000,0.000000,4197.948730,4170.256348,4162.563965,4183.589844,4218.461426,450.000000,1.000000,15.000000,,,,0.000000,4.000000,2.000000,2.000000,4.000000,0.000000,33.333332,,,,,,,,,,,,,,,,,,,,,,,,,,,,,,,,
1698692362.029289,1698692362.030137,68.000000,0.000000,4202.563965,4172.307617,4168.205078,4177.436035,4217.436035,1023.000000,1.000000,15.000000,,,,0.000000,4.000000,4.000000,2.000000,4.000000,0.000000,50.000000,,,,,,,,,,,,,,,,,,,,,,,,,,,,,,,,
1698692362.037169,1698692362.038117,69.000000,0.000000,4203.589844,4178.461426,4157.948730,4159.487305,4218.461426,450.000000,1.000000,15.000000,,,,0.000000,4.000000,4.000000,2.000000,4.000000,0.000000,50.000000,,,,,,,,,,,,,,,,,,,,,,,,,,,,,,,,
1698692362.045049,1698692362.046098,70.000000,0.000000,4204.102539,4184.615234,4155.384766,4154.871582,4228.717773,1023.000000,1.000000,15.000000,,,,0.000000,4.000000,4.000000,4.000000,4.000000,0.000000,66.666664,,,,,,,,,,,,,,,,,,,,,,,,,,,,,,,,
1698692362.052929,1698692362.054078,71.000000,0.000000,4204.615234,4186.666504,4163.077148,4167.692383,4230.256348,450.000000,1.000000,15.000000,,,,0.000000,4.000000,4.000000,4.000000,4.000000,0.000000,66.666664,,,,,,,,,,,,,,,,,,,,,,,,,,,,,,,,
1698692362.060809,1698692362.061858,72.000000,0.000000,4191.794922,4170.256348,4154.358887,4156.410156,4218.461426,450.000000,1.000000,15.000000,,,,0.000000,4.000000,4.000000,4.000000,4.000000,0.000000,66.666664,,,,,,,,,,,,,,,,,,,,,,,,,,,,,,,,
1698692362.068690,1698692362.069839,73.000000,0.000000,4201.025879,4176.410156,4157.948730,4146.153809,4216.410156,1023.000000,1.000000,15.000000,,,,0.000000,4.000000,4.000000,4.000000,4.000000,0.000000,66.666664,,,,,,,,,,,,,,,,,,,,,,,,,,,,,,,,
1698692362.076570,1698692362.077619,74.000000,0.000000,4217.436035,4176.410156,4160.000000,4152.820313,4220.512695,450.000000,1.000000,15.000000,,,,0.000000,4.000000,4.000000,4.000000,4.000000,0.000000,66.666664,,,,,,,,,,,,,,,,,,,,,,,,,,,,,,,,
1698692362.084450,1698692362.085599,75.000000,0.000000,4240.000000,4178.461426,4171.282227,4178.461426,4217.948730,0.000000,1.000000,15.000000,,,,0.000000,4.000000,4.000000,4.000000,4.000000,0.000000,66.666664,,,,,,,,,,,,,,,,,,,,,,,,,,,,,,,,
1698692362.092331,1698692362.093380,76.000000,0.000000,4256.922852,4186.666504,4189.743652,4202.563965,4217.948730,450.000000,1.000000,15.000000,,,,0.000000,4.000000,4.000000,4.000000,4.000000,0.000000,66.666664,,,,,,,,,,,,,,,,,,,,,,,,,,,,,,,,
1698692362.100211,1698692362.101360,77.000000,0.000000,4223.589844,4170.256348,4170.256348,4175.384766,4219.487305,450.000000,1.000000,15.000000,,,,0.000000,4.000000,4.000000,4.000000,4.000000,0.000000,66.666664,1.000000,33.333332,2.000000,2.000000,2.000000,4.000000,0.000000,5.765160,6.872128,2.300533,1.099068,0.880430,5.133179,4.258072,1.857557,1.168419,0.667777,8.978364,4.675462,1.021935,1.759185,0.527775,5.337436,7.617119,1.036709,1.333656,1.187725,0.162439,0.136252,0.170032,0.066787,0.063946
1698692362.108091,1698692362.109340,78.000000,0.000000,4226.153809,4174.358887,4166.153809,4172.307617,4215.897461,450.000000,1.000000,15.000000,,,,0.000000,4.000000,4.000000,4.000000,4.000000,0.000000,66.666664,,,,,,,,,,,,,,,,,,,,,,,,,,,,,,,,
1698692362.115971,1698692362.117320,79.000000,0.000000,4265.641113,4201.025879,4185.641113,4193.333496,4225.128418,0.000000,1.000000,15.000000,,,,0.000000,4.000000,4.000000,4.000000,4.000000,0.000000,66.666664,,,,,,,,,,,,,,,,,,,,,,,,,,,,,,,,
1698692362.123852,1698692362.125100,80.000000,0.000000,4253.333496,4205.128418,4180.000000,4185.128418,4233.333496,450.000000,1.000000,15.000000,,,,0.000000,4.000000,4.000000,4.000000,4.000000,0.000000,66.666664,,,,,,,,,,,,,,,,,,,,,,,,,,,,,,,,
1698692362.131732,1698692362.133081,81.000000,0.000000,4236.922852,4192.820313,4166.666504,4173.333496,4224.615234,450.000000,1.000000,15.000000,,,,0.000000,4.000000,4.000000,4.000000,4.000000,0.000000,66.666664,,,,,,,,,,,,,,,,,,,,,,,,,,,,,,,,
1698692362.139612,1698692362.140861,82.000000,0.000000,4254.358887,4190.769043,4169.230957,4176.922852,4218.461426,450.000000,1.000000,15.000000,,,,0.000000,4.000000,4.000000,4.000000,4.000000,0.000000,66.666664,,,,,,,,,,,,,,,,,,,,,,,,,,,,,,,,
1698692362.147492,1698692362.148841,83.000000,0.000000,4277.948730,4225.641113,4204.102539,4209.743652,4221.538574,0.000000,1.000000,15.000000,,,,0.000000,4.000000,4.000000,4.000000,4.000000,0.000000,66.666664,,,,,,,,,,,,,,,,,,,,,,,,,,,,,,,,
1698692362.155373,1698692362.156621,84.000000,0.000000,4267.692383,4231.794922,4216.922852,4222.563965,4220.512695,450.000000,1.000000,15.000000,,,,0.000000,4.000000,4.000000,4.000000,4.000000,0.000000,66.666664,,,,,,,,,,,,,,,,,,,,,,,,,,,,,,,,
1698692362.163253,1698692362.164601,85.000000,0.000000,4255.384766,4211.282227,4198.974121,4209.743652,4217.948730,450.000000,1.000000,15.000000,,,,0.000000,4.000000,4.000000,4.000000,4.000000,0.000000,66.666664,,,,,,,,,,,,,,,,,,,,,,,,,,,,,,,,
1698692362.171133,1698692362.172382,86.000000,0.000000,4276.922852,4231.794922,4205.641113,4223.077148,4220.000000,450.000000,1.000000,15.000000,,,,0.000000,4.000000,4.000000,4.000000,4.000000,0.000000,66.666664,,,,,,,,,,,,,,,,,,,,,,,,,,,,,,,,
1698692362.179013,1698692362.180162,87.000000,0.000000,4274.358887,4240.000000,4220.512695,4241.025879,4219.487305,0.000000,1.000000,15.000000,,,,0.000000,4.000000,4.000000,4.000000,4.000000,0.000000,66.666664,,,,,,,,,,,,,,,,,,,,,,,,,,,,,,,,
1698692362.186894,1698692362.187942,88.000000,0.000000,4276.410156,4252.307617,4242.051270,4257.948730,4220.000000,450.000000,1.000000,15.000000,,,,0.000000,4.000000,4.000000,4.000000,4.000000,0.000000,66.666664,,,,,,,,,,,,,,,,,,,,,,,,,,,,,,,,
1698692362.194774,1698692362.195723,89.000000,0.000000,4300.000000,4270.769043,4249.230957,4268.205078,4220.512695,450.000000,1.000000,15.000000,,,,0.000000,4.000000,4.000000,4.000000,4.000000,0.000000,66.666664,,,,,,,,,,,,,,,,,,,,,,,,,,,,,,,,
1698692362.202654,1698692362.203503,90.000000,0.000000,4295.384766,4258.461426,4234.358887,4264.615234,4218.974121,450.000000,1.000000,15.000000,,,,0.000000,4.000000,4.000000,4.000000,4.000000,0.000000,66.666664,,,,,,,,,,,,,,,,,,,,,,,,,,,,,,,,
1698692362.210534,1698692362.211383,91.000000,0.000000,4279.487305,4248.205078,4231.794922,4259.487305,4218.974121,0.000000,1.000000,15.000000,,,,0.000000,4.000000,4.000000,4.000000,4.000000,0.000000,66.666664,,,,,,,,,,,,,,,,,,,,,,,,,,,,,,,,
1698692362.218415,1698692362.219163,92.000000,0.000000,4264.615234,4244.102539,4223.589844,4252.820313,4219.487305,450.000000,1.000000,15.000000,,,,0.000000,4.000000,4.000000,4.000000,4.000000,0.000000,66.666664,,,,,,,,,,,,,,,,,,,,,,,,,,,,,,,,
1698692362.226295,1698692362.227144,93.000000,0.000000,4282.051270,4254.358887,4227.179688,4265.641113,4218.974121,450.000000,1.000000,15.000000,,,,0.000000,4.000000,4.000000,4.000000,4.000000,0.000000,66.666664,,,,,,,,7.171345,6.048069,2.236827,1.229237,0.936882,5.177070,3.517855,1.640617,1.230977,0.686050,8.075194,3.746373,0.842532,1.552301,0.456264,5.250202,6.333798,0.871490,1.495287,1.181107,0.152292,0.151469,0.224785,0.067581,0.075172
1698692362.234175,1698692362.235124,94.000000,0.000000,4312.820313,4262.563965,4241.025879,4269.230957,4219.487305,450.000000,1.000000,15.000000,,,,0.000000,4.000000,4.000000,4.000000,4.000000,0.000000,66.666664,,,,,,,,,,,,,,,,,,,,,,,,,,,,,,,,
1698692362.242055,1698692362.243105,95.000000,0.000000,4309.230957,4258.461426,4244.102539,4258.974121,4219.487305,0.000000,1.000000,15.000000,,,,0.000000,4.000000,4.000000,4.000000,4.000000,0.000000,66.666664,,,,,,,,,,,,,,,,,,,,,,,,,,,,,,,,
1698692362.249936,1698692362.251085,96.000000,0.000000,4321.025879,4264.615234,4251.282227,4286.153809,4219.487305,450.000000,1.000000,15.000000,,,,0.000000,4.000000,4.000000,4.000000,4.000000,0.000000,66.666664,,,,,,,,,,,,,,,,,,,,,,,,,,,,,,,,
1698692362.257816,1698692362.258865,97.000000,0.000000,4355.384766,4262.563965,4253.333496,4295.897461,4219.487305,450.000000,1.000000,15.000000,,,,0.000000,4.000000,4.000000,4.000000,4.000000,0.000000,66.666664,,,,,,,,,,,,,,,,,,,,,,,,,,,,,,,,
1698692362.265696,1698692362.266645,98.000000,0.000000,4392.820313,4276.922852,4268.717773,4290.769043,4219.487305,450.000000,1.000000,15.000000,,,,0.000000,4.000000,4.000000,4.000000,4.000000,0.000000,66.666664,,,,,,,,,,,,,,,,,,,,,,,,,,,,,,,,
1698692362.273576,1698692362.274426,99.000000,0.000000,4400.000000,4291.282227,4270.769043,4293.333496,4219.487305,0.000000,1.000000,15.000000,,,,0.000000,4.000000,4.000000,4.000000,4.000000,0.000000,66.666664,,,,,,,,,,,,,,,,,,,,,,,,,,,,,,,,
1698692362.281457,1698692362.282206,100.000000,0.000000,4367.692383,4266.666504,4239.487305,4268.205078,4219.487305,450.000000,1.000000,15.000000,,,,0.000000,4.000000,4.000000,4.000000,4.000000,0.000000,66.666664,,,,,,,,,,,,,,,,,,,,,,,,,,,,,,,,
1698692362.289337,1698692362.289986,101.000000,0.000000,4383.589844,4256.410156,4237.436035,4258.461426,4219.487305,450.000000,1.000000,15.000000,,,,0.000000,4.000000,4.000000,4.000000,4.000000,0.000000,66.666664,,,,,,,,,,,,,,,,,,,,,,,,,,,,,,,,
1698692362.297217,1698692362.297966,102.000000,0.000000,4418.974121,4250.256348,4238.974121,4258.974121,4219.487305,450.000000,1.000000,15.000000,,,,0.000000,4.000000,4.000000,4.000000,4.000000,0.000000,66.666664,,,,,,,,,,,,,,,,,,,,,,,,,,,,,,,,
1698692362.305097,1698692362.305947,103.000000,0.000000,4425.641113,4248.205078,4228.717773,4250.769043,4218.974121,0.000000,1.000000,15.000000,,,,0.000000,4.000000,4.000000,4.000000,4.000000,0.000000,66.666664,,,,,,,,,,,,,,,,,,,,,,,,,,,,,,,,
1698692362.312978,1698692362.313927,104.000000,0.000000,4419.487305,4260.512695,4223.589844,4245.641113,4219.487305,450.000000,1.000000,15.000000,,,,0.000000,4.000000,4.000000,4.000000,4.000000,0.000000,66.666664,,,,,,,,,,,,,,,,,,,,,,,,,,,,,,,,
1698692362.320858,1698692362.321907,105.000000,0.000000,4406.666504,4252.307617,4217.436035,4237.436035,4219.487305,450.000000,1.000000,15.000000,,,,0.000000,4.000000,4.000000,4.000000,4.000000,0.000000,66.666664,,,,,,,,,,,,,,,,,,,,,,,,,,,,,,,,
1698692362.328738,1698692362.329887,106.000000,0.000000,4393.846191,4242.051270,4234.358887,4245.128418,4218.974121,450.000000,1.000000,15.000000,,,,0.000000,4.000000,4.000000,4.000000,4.000000,0.000000,66.666664,,,,,,,,,,,,,,,,,,,,,,,,,,,,,,,,
1698692362.336618,1698692362.337868,107.000000,0.000000,4366.153809,4237.948730,4246.666504,4244.102539,4219.487305,0.000000,1.000000,15.000000,,,,0.000000,4.000000,4.000000,4.000000,4.000000,0.000000,66.666664,,,,,,,,,,,,,,,,,,,,,,,,,,,,,,,,
1698692362.344499,1698692362.345648,108.000000,0.000000,4360.512695,4244.102539,4249.743652,4239.487305,4220.512695,450.000000,1.000000,15.000000,,,,0.000000,4.000000,4.000000,4.000000,4.000000,0.000000,66.666664,,,,,,,,,,,,,,,,,,,,,,,,,,,,,,,,
1698692362.352379,1698692362.353628,109.000000,0.000000,4357.948730,4246.153809,4252.820313,4241.538574,4221.025879,450.000000,1.000000,15.000000,,,,0.000000,4.000000,4.000000,4.000000,4.000000,0.000000,66.666664,,,,,,,,8.466056,4.987272,2.192431,1.359150,0.930134,5.118208,2.649183,1.424418,1.227421,0.704215,7.330543,3.023615,0.666450,1.293983,0.418818,4.897526,4.646436,0.774807,1.698350,1.143480,0.131942,0.176849,0.284500,0.071251,0.087688
1698692362.360259,1698692362.361409,110.000000,0.000000,4324.615234,4235.897461,4234.871582,4228.717773,4217.948730,450.000000,1.000000,15.000000,,,,0.000000,4.000000,4.000000,4.000000,4.000000,0.000000,66.666664,,,,,,,,,,,,,,,,,,,,,,,,,,,,,,,,
1698692362.368139,1698692362.369389,111.000000,0.000000,4328.717773,4258.461426,4234.358887,4243.589844,4221.538574,0.000000,1.000000,15.000000,,,,0.000000,4.000000,4.000000,4.000000,4.000000,0.000000,66.666664,,,,,,,,,,,,,,,,,,,,,,,,,,,,,,,,
1698692362.376020,1698692362.377169,112.000000,0.000000,4340.000000,4274.871582,4241.538574,4260.512695,4225.128418,450.000000,1.000000,15.000000,,,,0.000000,4.000000,4.000000,4.000000,4.000000,0.000000,66.666664,,,,,,,,,,,,,,,,,,,,,,,,,,,,,,,,
1698692362.383900,1698692362.385150,113.000000,0.000000,4332.820313,4268.717773,4254.358887,4265.641113,4224.102539,450.000000,1.000000,15.000000,,,,0.000000,4.000000,4.000000,4.000000,4.000000,0.000000,66.666664,,,,,,,,,,,,,,,,,,,,,,,,,,,,,,,,
1698692362.391780,1698692362.393130,114.000000,0.000000,4334.358887,4268.717773,4270.769043,4283.077148,4229.743652,450.000000,1.000000,15.000000,,,,0.000000,4.000000,4.000000,4.000000,4.000000,0.000000,66.666664,,,,,,,,,,,,,,,,,,,,,,,,,,,,,,,,
1698692362.399660,1698692362.401110,115.000000,0.000000,4316.922852,4244.102539,4252.820313,4273.846191,4229.230957,0.000000,1.000000,15.000000,,,,0.000000,4.000000,4.000000,4.000000,4.000000,0.000000,66.666664,,,,,,,,,,,,,,,,,,,,,,,,,,,,,,,,
1698692362.407541,1698692362.408890,116.000000,0.000000,4316.410156,4248.205078,4257.948730,4271.794922,4218.974121,450.000000,1.000000,15.000000,,,,0.000000,4.000000,4.000000,4.000000,4.000000,0.000000,66.666664,,,,,,,,,,,,,,,,,,,,,,,,,,,,,,,,
1698692362.415421,1698692362.416870,117.000000,0.000000,4335.897461,4276.922852,4284.615234,4288.717773,4224.615234,450.000000,1.000000,15.000000,,,,0.000000,4.000000,4.000000,4.000000,4.000000,0.000000,66.666664,,,,,,,,,,,,,,,,,,,,,,,,,,,,,,,,
1698692362.423301,1698692362.424650,118.000000,0.000000,4324.615234,4274.871582,4277.436035,4286.153809,4236.922852,450.000000,1.000000,15.000000,,,,0.000000,4.000000,4.000000,4.000000,4.000000,0.000000,66.666664,,,,,,,,,,,,,,,,,,,,,,,,,,,,,,,,
1698692362.431181,1698692362.432631,119.000000,0.000000,4304.615234,4258.461426,4262.563965,4273.333496,4226.153809,0.000000,1.000000,15.000000,,,,0.000000,4.000000,4.000000,4.000000,4.000000,0.000000,66.666664,,,,,,,,,,,,,,,,,,,,,,,,,,,,,,,,
1698692362.439062,1698692362.440411,120.000000,0.000000,4295.384766,4248.205078,4256.410156,4263.077148,4215.897461,450.000000,1.000000,15.000000,,,,0.000000,4.000000,4.000000,4.000000,4.000000,0.000000,66.666664,,,,,,,,,,,,,,,,,,,,,,,,,,,,,,,,
1698692362.446942,1698692362.448391,121.000000,0.000000,4307.179688,4260.512695,4265.641113,4277.436035,4221.538574,450.000000,1.000000,15.000000,,,,0.000000,4.000000,4.000000,4.000000,4.000000,0.000000,66.666664,,,,,,,,,,,,,,,,,,,,,,,,,,,,,,,,
1698692362.454822,1698692362.456171,122.000000,0.000000,4303.589844,4270.769043,4262.051270,4277.948730,4222.051270,450.000000,1.000000,15.000000,,,,0.000000,4.000000,4.000000,4.000000,4.000000,0.000000,66.666664,,,,,,,,,,,,,,,,,,,,,,,,,,,,,,,,
1698692362.462702,1698692362.464151,123.000000,0.000000,4274.358887,4264.615234,4249.230957,4261.538574,4219.487305,0.000000,1.000000,15.000000,,,,0.000000,4.000000,4.000000,4.000000,4.000000,0.000000,66.666664,,,,,,,,,,,,,,,,,,,,,,,,,,,,,,,,
1698692362.470583,1698692362.471932,124.000000,0.000000,4264.102539,4264.615234,4247.692383,4271.794922,4219.487305,450.000000,1.000000,15.000000,,,,0.000000,4.000000,4.000000,4.000000,4.000000,0.000000,66.666664,,,,,,,,,,,,,,,,,,,,,,,,,,,,,,,,
1698692362.478463,1698692362.479712,125.000000,0.000000,4257.948730,4252.307617,4231.794922,4258.461426,4218.461426,450.000000,1.000000,15.000000,,,,0.000000,4.000000,4.000000,4.000000,4.000000,0.000000,66.666664,,,,,,,,9.528094,4.055491,2.103553,1.437396,0.880909,5.098936,1.837072,1.187377,1.126777,0.724680,6.931614,2.480507,0.538397,1.038126,0.422167,4.444827,3.014444,0.806407,1.859050,1.098917,0.107470,0.205906,0.345769,0.077224,0.100632
1698692362.486343,1698692362.487492,126.000000,0.000000,4264.102539,4248.205078,4226.666504,4234.358887,4217.948730,450.000000,1.000000,15.000000,,,,0.000000,4.000000,4.000000,4.000000,4.000000,0.000000,66.666664,,,,,,,,,,,,,,,,,,,,,,,,,,,,,,,,
1698692362.494223,1698692362.495273,127.000000,0.000000,4270.769043,4250.256348,4234.358887,4240.512695,4217.948730,228.000000,1.000000,15.000000,,,,0.000000,4.000000,4.000000,4.000000,4.000000,0.000000,66.666664,,,,,,,,,,,,,,,,,,,,,,,,,,,,,,,,
1698692362.502104,1698692362.503053,0.000000,0.000000,4267.692383,4248.205078,4241.025879,4252.820313,4217.948730,450.000000,1.000000,15.000000,,,,0.000000,4.000000,4.000000,4.000000,4.000000,0.000000,66.666664,,,,,,,,,,,,,,,,,,,,,,,,,,,,,,,,
1698692362.509984,1698692362.510833,1.000000,0.000000,4283.077148,4256.410156,4264.102539,4266.666504,4217.948730,450.000000,1.000000,15.000000,,,,0.000000,4.000000,4.000000,4.000000,4.000000,0.000000,66.666664,,,,,,,,,,,,,,,,,,,,,,,,,,,,,,,,
1698692362.517864,1698692362.518614,2.000000,0.000000,4277.436035,4244.102539,4274.871582,4266.666504,4217.948730,1023.000000,1.000000,15.000000,,,,0.000000,4.000000,4.000000,4.000000,4.000000,0.000000,66.666664,,,,,,,,,,,,,,,,,,,,,,,,,,,,,,,,
1698692362.525745,1698692362.526394,3.000000,0.000000,4276.410156,4252.307617,4284.615234,4276.922852,4217.948730,450.000000,1.000000,15.000000,,,,0.000000,4.000000,4.000000,4.000000,4.000000,0.000000,66.666664,,,,,,,,,,,,,,,,,,,,,,,,,,,,,,,,
1698692362.533625,1698692362.534174,4.000000,0.000000,4294.358887,4285.128418,4298.974121,4294.358887,4217.948730,284.000000,1.000000,15.000000,,,,0.000000,4.000000,2.000000,4.000000,4.000000,0.000000,50.000000,,,,,,,,,,,,,,,,,,,,,,,,,,,,,,,,
1698692362.541505,1698692362.542155,5.000000,0.000000,4285.641113,4287.179688,4289.230957,4291.282227,4217.948730,450.000000,1.000000,15.000000,,,,0.000000,4.000000,2.000000,4.000000,4.000000,0.000000,50.000000,,,,,,,,,,,,,,,,,,,,,,,,,,,,,,,,
1698692362.549385,1698692362.550135,6.000000,0.000000,4275.384766,4272.820313,4278.461426,4290.769043,4217.948730,270.000000,1.000000,15.000000,,,,0.000000,4.000000,2.000000,2.000000,4.000000,0.000000,33.333332,,,,,,,,,,,,,,,,,,,,,,,,,,,,,,,,
1698692362.557265,1698692362.557915,7.000000,0.000000,4261.025879,4254.358887,4267.692383,4272.820313,4217.948730,450.000000,1.000000,15.000000,,,,0.000000,4.000000,2.000000,2.000000,4.000000,0.000000,33.333332,,,,,,,,,,,,,,,,,,,,,,,,,,,,,,,,
1698692362.565146,1698692362.565695,8.000000,0.000000,4263.077148,4262.563965,4274.871582,4268.205078,4217.948730,450.000000,1.000000,15.000000,,,,0.000000,4.000000,2.000000,2.000000,4.000000,0.000000,33.333332,,,,,,,,,,,,,,,,,,,,,,,,,,,,,,,,
1698692362.573026,1698692362.573476,9.000000,0.000000,4285.128418,4272.820313,4291.282227,4290.256348,4217.436035,1023.000000,1.000000,15.000000,,,,0.000000,4.000000,2.000000,2.000000,4.000000,0.000000,33.333332,,,,,,,,,,,,,,,,,,,,,,,,,,,,,,,,
1698692362.580906,1698692362.581256,10.000000,0.000000,4281.025879,4252.307617,4283.589844,4278.461426,4217.948730,450.000000,1.000000,15.000000,,,,0.000000,4.000000,2.000000,2.000000,4.000000,0.000000,33.333332,,,,,,,,,,,,,,,,,,,,,,,,,,,,,,,,
1698692362.588786,1698692362.589036,11.000000,0.000000,4273.333496,4254.358887,4276.410156,4253.333496,4219.487305,0.000000,1.000000,15.000000,,,,0.000000,4.000000,2.000000,2.000000,4.000000,0.000000,33.333332,,,,,,,,,,,,,,,,,,,,,,,,,,,,,,,,
1698692362.596667,1698692362.596817,12.000000,0.000000,4255.384766,4252.307617,4254.358887,4229.743652,4217.948730,450.000000,1.000000,15.000000,,,,0.000000,4.000000,2.000000,2.000000,4.000000,0.000000,33.333332,,,,,,,,,,,,,,,,,,,,,,,,,,,,,,,,
1698692362.604547,1698692362.604797,13.000000,0.000000,4241.025879,4235.897461,4239.487305,4225.128418,4222.563965,450.000000,1.000000,15.000000,,,,0.000000,4.000000,2.000000,2.000000,4.000000,0.000000,33.333332,1.000000,33.333332,2.000000,2.000000,2.000000,4.000000,0.000000,10.177990,3.503502,1.952621,1.447031,0.836649,5.174562,1.230797,0.956606,0.949904,0.747505,6.913670,2.107349,0.530571,0.825974,0.464018,4.252939,1.827121,1.016838,1.912085,1.070154,0.084936,0.227835,0.401628,0.082936,0.112295
1698692362.612427,1698692362.612777,14.000000,0.000000,4246.153809,4240.000000,4247.692383,4240.512695,4232.307617,450.000000,1.000000,15.000000,,,,0.000000,4.000000,2.000000,2.000000,4.000000,0.000000,33.333332,,,,,,,,,,,,,,,,,,,,,,,,,,,,,,,,
1698692362.620308,1698692362.620757,15.000000,0.000000,4234.871582,4237.948730,4243.077148,4230.256348,4228.205078,0.000000,1.000000,15.000000,,,,0.000000,4.000000,2.000000,2.000000,4.000000,0.000000,33.333332,,,,,,,,,,,,,,,,,,,,,,,,,,,,,,,,
1698692362.628188,1698692362.628738,16.000000,0.000000,4238.974121,4250.256348,4263.589844,4233.846191,4217.436035,0.000000,1.000000,15.000000,,,,0.000000,4.000000,2.000000,2.000000,4.000000,0.000000,33.333332,,,,,,,,,,,,,,,,,,,,,,,,,,,,,,,,
1698692362.636068,1698692362.636718,17.000000,0.000000,4255.897461,4262.563965,4286.153809,4249.743652,4217.436035,0.000000,1.000000,15.000000,,,,0.000000,4.000000,2.000000,2.000000,4.000000,0.000000,33.333332,,,,,,,,,,,,,,,,,,,,,,,,,,,,,,,,
1698692362.643948,1698692362.644698,18.000000,0.000000,4255.384766,4252.307617,4272.820313,4243.077148,4220.512695,0.000000,1.000000,15.000000,,,,0.000000,4.000000,2.000000,2.000000,4.000000,0.000000,33.333332,,,,,,,,,,,,,,,,,,,,,,,,,,,,,,,,
1698692362.651828,1698692362.652679,19.000000,0.000000,4243.077148,4242.051270,4255.384766,4239.487305,4217.436035,0.000000,1.000000,15.000000,,,,0.000000,4.000000,2.000000,2.000000,4.000000,0.000000,33.333332,,,,,,,,,,,,,,,,,,,,,,,,,,,,,,,,
1698692362.659709,1698692362.660659,20.000000,0.000000,4230.256348,4237.948730,4242.051270,4236.922852,4216.922852,0.000000,1.000000,15.000000,,,,0.000000,4.000000,2.000000,2.000000,4.000000,0.000000,33.333332,,,,,,,,,,,,,,,,,,,,,,,,,,,,,,,,
1698692362.667589,1698692362.668639,21.000000,0.000000,4257.948730,4258.461426,4249.230957,4238.461426,4218.461426,0.000000,1.000000,15.000000,,,,0.000000,4.000000,2.000000,2.000000,4.000000,0.000000,33.333332,,,,,,,,,,,,,,,,,,,,,,,,,,,,,,,,
1698692362.675469,1698692362.676419,22.000000,0.000000,4280.000000,4266.666504,4253.846191,4228.205078,4218.974121,0.000000,1.000000,15.000000,,,,0.000000,4.000000,2.000000,2.000000,4.000000,0.000000,33.333332,,,,,,,,,,,,,,,,,,,,,,,,,,,,,,,,
1698692362.683349,1698692362.684400,23.000000,0.000000,4277.948730,4250.256348,4251.282227,4228.717773,4219.487305,0.000000,1.000000,15.000000,,,,0.000000,4.000000,2.000000,2.000000,4.000000,0.000000,33.333332,,,,,,,,,,,,,,,,,,,,,,,,,,,,,,,,
1698692362.691230,1698692362.692180,24.000000,0.000000,4294.871582,4256.410156,4258.461426,4250.256348,4218.974121,0.000000,1.000000,15.000000,,,,0.000000,4.000000,2.000000,2.000000,4.000000,0.000000,33.333332,,,,,,,,,,,,,,,,,,,,,,,,,,,,,,,,
1698692362.699110,1698692362.700160,25.000000,0.000000,4297.436035,4260.512695,4257.436035,4243.589844,4218.974121,0.000000,1.000000,15.000000,,,,0.000000,4.000000,2.000000,2.000000,4.000000,0.000000,33.333332,,,,,,,,,,,,,,,,,,,,,,,,,,,,,,,,
1698692362.706990,1698692362.707940,26.000000,0.000000,4296.410156,4262.563965,4270.256348,4241.538574,4218.974121,0.000000,1.000000,15.000000,,,,0.000000,4.000000,2.000000,2.000000,4.000000,0.000000,33.333332,,,,,,,,,,,,,,,,,,,,,,,,,,,,,,,,
1698692362.714871,1698692362.715920,27.000000,0.000000,4284.102539,4256.410156,4270.256348,4246.153809,4218.461426,0.000000,1.000000,15.000000,,,,0.000000,4.000000,2.000000,2.000000,4.000000,0.000000,33.333332,,,,,,,,,,,,,,,,,,,,,,,,,,,,,,,,
1698692362.722751,1698692362.723701,28.000000,0.000000,4253.846191,4242.051270,4258.974121,4227.692383,4219.487305,0.000000,1.000000,15.000000,,,,0.000000,4.000000,2.000000,2.000000,4.000000,0.000000,33.333332,,,,,,,,,,,,,,,,,,,,,,,,,,,,,,,,
1698692362.730631,1698692362.731681,29.000000,0.000000,4256.922852,4237.948730,4265.128418,4221.025879,4220.000000,0.000000,1.000000,15.000000,,,,0.000000,4.000000,2.000000,2.000000,4.000000,0.000000,33.333332,,,,,,,,10.980422,3.390971,1.753362,1.404020,0.846740,5.370133,0.907901,0.771218,0.752815,0.771405,7.166983,1.937934,0.696525,0.678685,0.534956,4.680880,1.253177,1.391027,1.831099,1.065092,0.072947,0.234199,0.442242,0.085482,0.121070
1698692362.738511,1698692362.739461,30.000000,0.000000,4262.563965,4231.794922,4256.922852,4217.948730,4215.897461,0.000000,1.000000,15.000000,,,,0.000000,4.000000,2.000000,2.000000,4.000000,0.000000,33.333332,,,,,,,,,,,,,,,,,,,,,,,,,,,,,,,,
1698692362.746391,1698692362.747441,31.000000,0.000000,4253.846191,4244.102539,4253.846191,4222.051270,4222.051270,0.000000,1.000000,15.000000,,,,0.000000,4.000000,2.000000,2.000000,4.000000,0.000000,33.333332,,,,,,,,,,,,,,,,,,,,,,,,,,,,,,,,
1698692362.754272,1698692362.755222,32.000000,0.000000,4239.487305,4248.205078,4247.179688,4217.948730,4231.282227,0.000000,1.000000,15.000000,,,,0.000000,4.000000,2.000000,2.000000,4.000000,0.000000,33.333332,,,,,,,,,,,,,,,,,,,,,,,,,,,,,,,,
1698692362.762152,1698692362.763202,33.000000,0.000000,4233.333496,4235.897461,4228.205078,4197.948730,4226.153809,0.000000,1.000000,15.000000,,,,0.000000,4.000000,2.000000,2.000000,4.000000,0.000000,33.333332,,,,,,,,,,,,,,,,,,,,,,,,,,,,,,,,
1698692362.770032,1698692362.770982,34.000000,0.000000,4243.589844,4240.000000,4228.717773,4198.974121,4224.102539,0.000000,1.000000,15.000000,,,,0.000000,4.000000,2.000000,2.000000,4.000000,0.000000,33.333332,,,,,,,,,,,,,,,,,,,,,,,,,,,,,,,,
1698692362.777913,1698692362.778962,35.000000,0.000000,4233.333496,4229.743652,4232.307617,4194.358887,4232.820313,0.000000,1.000000,15.000000,,,,0.000000,4.000000,2.000000,2.000000,4.000000,0.000000,33.333332,,,,,,,,,,,,,,,,,,,,,,,,,,,,,,,,
1698692362.785793,1698692362.786943,36.000000,0.000000,4240.512695,4235.897461,4246.666504,4197.436035,4232.307617,0.000000,1.000000,15.000000,,,,0.000000,4.000000,2.000000,2.000000,4.000000,0.000000,33.333332,,,,,,,,,,,,,,,,,,,,,,,,,,,,,,,,
1698692362.793673,1698692362.794823,37.000000,0.000000,4253.846191,4242.051270,4244.102539,4209.230957,4227.692383,0.000000,1.000000,15.000000,,,,0.000000,4.000000,2.000000,2.000000,4.000000,0.000000,33.333332,,,,,,,,,,,,,,,,,,,,,,,,,,,,,,,,
1698692362.801553,1698692362.802603,38.000000,0.000000,4228.717773,4217.436035,4213.333496,4195.384766,4230.256348,0.000000,1.000000,15.000000,,,,0.000000,4.000000,2.000000,2.000000,4.000000,0.000000,33.333332,,,,,,,,,,,,,,,,,,,,,,,,,,,,,,,,
1698692362.809434,1698692362.810383,39.000000,0.000000,4221.025879,4217.436035,4214.871582,4197.948730,4232.307617,0.000000,1.000000,15.000000,,,,0.000000,4.000000,2.000000,2.000000,4.000000,0.000000,33.333332,,,,,,,,,,,,,,,,,,,,,,,,,,,,,,,,
1698692362.817314,1698692362.818164,40.000000,0.000000,4226.666504,4229.743652,4227.179688,4201.538574,4230.256348,0.000000,1.000000,15.000000,,,,0.000000,4.000000,2.000000,2.000000,4.000000,0.000000,33.333332,,,,,,,,,,,,,,,,,,,,,,,,,,,,,,,,
1698692362.825194,1698692362.825944,41.000000,0.000000,4238.461426,4240.000000,4240.512695,4207.179688,4224.102539,0.000000,1.000000,15.000000,,,,0.000000,4.000000,2.000000,2.000000,4.000000,0.000000,33.333332,,,,,,,,,,,,,,,,,,,,,,,,,,,,,,,,
1698692362.833074,1698692362.833724,42.000000,0.000000,4253.846191,4242.051270,4249.743652,4218.974121,4216.922852,0.000000,1.000000,15.000000,,,,0.000000,4.000000,2.000000,2.000000,4.000000,0.000000,33.333332,,,,,,,,,,,,,,,,,,,,,,,,,,,,,,,,
1698692362.840954,1698692362.841505,43.000000,0.000000,4245.128418,4229.743652,4230.769043,4210.256348,4218.974121,0.000000,1.000000,15.000000,,,,0.000000,4.000000,2.000000,2.000000,4.000000,0.000000,33.333332,,,,,,,,,,,,,,,,,,,,,,,,,,,,,,,,
1698692362.848835,1698692362.849285,44.000000,0.000000,4244.615234,4244.102539,4221.538574,4208.205078,4220.000000,0.000000,1.000000,15.000000,,,,0.000000,4.000000,2.000000,2.000000,4.000000,0.000000,33.333332,,,,,,,,,,,,,,,,,,,,,,,,,,,,,,,,
1698692362.856715,1698692362.857265,45.000000,0.000000,4243.077148,4254.358887,4218.974121,4198.974121,4216.922852,0.000000,1.000000,15.000000,,,,0.000000,4.000000,2.000000,2.000000,4.000000,0.000000,33.333332,,,,,,,,12.370677,3.601786,1.531319,1.340933,0.932112,5.574650,0.838710,0.660066,0.602151,0.795152,7.406053,2.024890,1.012155,0.618646,0.618846,5.824863,1.222397,1.832276,1.640555,1.073858,0.079450,0.221412,0.456378,0.083693,0.126184
1698692362.864595,1698692362.865245,46.000000,0.000000,4232.820313,4242.051270,4225.641113,4190.769043,4217.436035,0.000000,1.000000,15.000000,,,,0.000000,4.000000,2.000000,2.000000,4.000000,0.000000,33.333332,,,,,,,,,,,,,,,,,,,,,,,,,,,,,,,,
1698692362.872476,1698692362.873026,47.000000,0.000000,4234.871582,4237.948730,4244.615234,4203.589844,4218.461426,0.000000,1.000000,15.000000,,,,0.000000,4.000000,2.000000,2.000000,4.000000,0.000000,33.333332,,,,,,,,,,,,,,,,,,,,,,,,,,,,,,,,
1698692362.880356,1698692362.880806,48.000000,0.000000,4231.794922,4231.794922,4246.666504,4206.666504,4218.461426,0.000000,1.000000,15.000000,,,,0.000000,4.000000,2.000000,2.000000,4.000000,0.000000,33.333332,,,,,,,,,,,,,,,,,,,,,,,,,,,,,,,,
1698692362.888236,1698692362.888586,49.000000,0.000000,4236.410156,4244.102539,4251.794922,4211.794922,4218.974121,0.000000,1.000000,15.000000,,,,0.000000,4.000000,2.000000,2.000000,4.000000,0.000000,33.333332,,,,,,,,,,,,,,,,,,,,,,,,,,,,,,,,
1698692362.896116,1698692362.896367,50.000000,0.000000,4242.563965,4254.358887,4259.487305,4217.436035,4218.461426,0.000000,1.000000,15.000000,,,,0.000000,4.000000,2.000000,2.000000,4.000000,0.000000,33.333332,,,,,,,,,,,,,,,,,,,,,,,,,,,,,,,,
1698692362.903997,1698692362.904147,51.000000,0.000000,4254.871582,4252.307617,4266.666504,4229.230957,4219.487305,0.000000,1.000000,15.000000,,,,0.000000,4.000000,2.000000,2.000000,4.000000,0.000000,33.333332,,,,,,,,,,,,,,,,,,,,,,,,,,,,,,,,
1698692362.911877,1698692362.911927,52.000000,0.000000,4253.333496,4237.948730,4254.358887,4230.769043,4218.974121,0.000000,1.000000,15.000000,,,,0.000000,4.000000,2.000000,2.000000,4.000000,0.000000,33.333332,,,,,,,,,,,,,,,,,,,,,,,,,,,,,,,,
1698692362.919757,1698692362.919908,53.000000,0.000000,4215.897461,4209.230957,4206.666504,4195.384766,4217.948730,0.000000,1.000000,15.000000,,,,0.000000,4.000000,2.000000,2.000000,4.000000,0.000000,33.333332,,,,,,,,,,,,,,,,,,,,,,,,,,,,,,,,
1698692362.927637,1698692362.927888,54.000000,0.000000,4211.282227,4217.436035,4184.102539,4185.128418,4225.128418,0.000000,1.000000,15.000000,,,,0.000000,4.000000,2.000000,2.000000,4.000000,0.000000,33.333332,,,,,,,,,,,,,,,,,,,,,,,,,,,,,,,,
1698692362.935518,1698692362.935868,55.000000,0.000000,4213.333496,4219.487305,4180.512695,4184.102539,4234.358887,0.000000,1.000000,15.000000,,,,0.000000,4.000000,2.000000,2.000000,4.000000,0.000000,33.333332,,,,,,,,,,,,,,,,,,,,,,,,,,,,,,,,
1698692362.943398,1698692362.943848,56.000000,0.000000,4204.102539,4211.282227,4182.563965,4172.820313,4231.794922,0.000000,1.000000,15.000000,,,,0.000000,4.000000,2.000000,2.000000,4.000000,0.000000,33.333332,,,,,,,,,,,,,,,,,,,,,,,,,,,,,,,,
1698692362.951278,1698692362.951829,57.000000,0.000000,4216.922852,4231.794922,4201.025879,4178.461426,4228.205078,0.000000,1.000000,15.000000,,,,0.000000,4.000000,2.000000,2.000000,4.000000,0.000000,33.333332,,,,,,,,,,,,,,,,,,,,,,,,,,,,,,,,
1698692362.959158,1698692362.959809,58.000000,0.000000,4215.384766,4231.794922,4205.641113,4176.922852,4230.769043,0.000000,1.000000,15.000000,,,,0.000000,4.000000,2.000000,2.000000,4.000000,0.000000,33.333332,,,,,,,,,,,,,,,,,,,,,,,,,,,,,,,,
1698692362.967039,1698692362.967789,59.000000,0.000000,4221.538574,4231.794922,4221.538574,4187.179688,4225.641113,0.000000,1.000000,15.000000,,,,0.000000,4.000000,2.000000,2.000000,4.000000,0.000000,33.333332,,,,,,,,,,,,,,,,,,,,,,,,,,,,,,,,
1698692362.974919,1698692362.975769,60.000000,0.000000,4224.102539,4237.948730,4231.282227,4198.461426,4216.922852,0.000000,1.000000,15.000000,,,,0.000000,4.000000,2.000000,2.000000,4.000000,0.000000,33.333332,,,,,,,,,,,,,,,,,,,,,,,,,,,,,,,,
1698692362.982799,1698692362.983749,61.000000,0.000000,4210.256348,4235.897461,4216.922852,4195.897461,4217.948730,0.000000,1.000000,15.000000,,,,0.000000,4.000000,2.000000,2.000000,4.000000,0.000000,33.333332,,,,,,,,14.571174,3.965443,1.359748,1.293384,1.070139,5.756234,0.934003,0.643809,0.545423,0.816469,7.915258,2.320829,1.394516,0.671006,0.694456,7.663619,1.493286,2.206153,1.407973,1.074506,0.110732,0.194528,0.438962,0.078671,0.127831
1698692362.990679,1698692362.991530,62.000000,0.000000,4223.589844,4240.000000,4223.589844,4209.230957,4220.000000,0.000000,1.000000,15.000000,,,,0.000000,4.000000,2.000000,2.000000,4.000000,0.000000,33.333332,,,,,,,,,,,,,,,,,,,,,,,,,,,,,,,,
1698692362.998560,1698692362.999510,63.000000,0.000000,4235.897461,4233.846191,4235.897461,4215.384766,4218.974121,0.000000,1.000000,15.000000,,,,0.000000,4.000000,2.000000,2.000000,4.000000,0.000000,33.333332,,,,,,,,,,,,,,,,,,,,,,,,,,,,,,,,
1698692363.006440,1698692363.007290,64.000000,0.000000,4236.410156,4237.948730,4244.102539,4217.436035,4218.974121,450.000000,1.000000,15.000000,,,,0.000000,4.000000,2.000000,2.000000,4.000000,0.000000,33.333332,,,,,,,,,,,,,,,,,,,,,,,,,,,,,,,,
1698692363.014320,1698692363.015271,65.000000,0.000000,4234.871582,4237.948730,4242.563965,4220.000000,4219.487305,450.000000,1.000000,15.000000,,,,0.000000,4.000000,2.000000,2.000000,4.000000,0.000000,33.333332,,,,,,,,,,,,,,,,,,,,,,,,,,,,,,,,
1698692363.022200,1698692363.023051,66.000000,0.000000,4237.436035,4233.846191,4246.153809,4217.436035,4217.436035,1023.000000,1.000000,15.000000,,,,0.000000,4.000000,2.000000,2.000000,4.000000,0.000000,33.333332,,,,,,,,,,,,,,,,,,,,,,,,,,,,,,,,
1698692363.030081,1698692363.031031,67.000000,0.000000,4249.230957,4248.205078,4270.769043,4221.538574,4217.948730,450.000000,1.000000,15.000000,,,,0.000000,4.000000,2.000000,2.000000,4.000000,0.000000,33.333332,,,,,,,,,,,,,,,,,,,,,,,,,,,,,,,,
1698692363.037961,1698692363.038811,68.000000,0.000000,4243.589844,4250.256348,4270.769043,4211.794922,4218.974121,1023.000000,1.000000,15.000000,,,,0.000000,4.000000,4.000000,2.000000,4.000000,0.000000,50.000000,,,,,,,,,,,,,,,,,,,,,,,,,,,,,,,,
1698692363.045841,1698692363.046792,69.000000,0.000000,4257.436035,4258.461426,4280.512695,4223.077148,4220.000000,450.000000,1.000000,15.000000,,,,0.000000,4.000000,4.000000,2.000000,4.000000,0.000000,50.000000,,,,,,,,,,,,,,,,,,,,,,,,,,,,,,,,
1698692363.053721,1698692363.054572,70.000000,0.000000,4269.743652,4262.563965,4289.230957,4240.512695,4217.436035,1023.000000,1.000000,15.000000,,,,0.000000,4.000000,4.000000,4.000000,4.000000,0.000000,66.666664,,,,,,,,,,,,,,,,,,,,,,,,,,,,,,,,
1698692363.061602,1698692363.062552,71.000000,0.000000,4243.589844,4237.948730,4257.436035,4221.538574,4220.000000,450.000000,1.000000,15.000000,,,,0.000000,4.000000,4.000000,4.000000,4.000000,0.000000,66.666664,,,,,,,,,,,,,,,,,,,,,,,,,,,,,,,,
1698692363.069482,1698692363.070332,72.000000,0.000000,4244.615234,4233.846191,4238.974121,4212.820313,4229.743652,450.000000,1.000000,15.000000,,,,0.000000,4.000000,4.000000,4.000000,4.000000,0.000000,66.666664,,,,,,,,,,,,,,,,,,,,,,,,,,,,,,,,
1698692363.077362,1698692363.078312,73.000000,0.000000,4246.153809,4244.102539,4236.922852,4203.589844,4234.871582,1023.000000,1.000000,15.000000,,,,0.000000,4.000000,4.000000,4.000000,4.000000,0.000000,66.666664,,,,,,,,,,,,,,,,,,,,,,,,,,,,,,,,
1698692363.085242,1698692363.086093,74.000000,0.000000,4233.333496,4240.000000,4230.769043,4197.948730,4229.230957,450.000000,1.000000,15.000000,,,,0.000000,4.000000,4.000000,4.000000,4.000000,0.000000,66.666664,,,,,,,,,,,,,,,,,,,,,,,,,,,,,,,,
1698692363.093123,1698692363.094073,75.000000,0.000000,4245.128418,4219.487305,4225.128418,4197.436035,4221.538574,0.000000,1.000000,15.000000,,,,0.000000,4.000000,4.000000,4.000000,4.000000,0.000000,66.666664,,,,,,,,,,,,,,,,,,,,,,,,,,,,,,,,
1698692363.101003,1698692363.101853,76.000000,0.000000,4246.666504,4194.871582,4223.077148,4181.538574,4219.487305,450.000000,1.000000,15.000000,,,,0.000000,4.000000,4.000000,4.000000,4.000000,0.000000,66.666664,,,,,,,,,,,,,,,,,,,,,,,,,,,,,,,,
1698692363.108883,1698692363.109833,77.000000,0.000000,4225.128418,4196.922852,4224.615234,4181.538574,4219.487305,450.000000,1.000000,15.000000,,,,0.000000,4.000000,4.000000,4.000000,4.000000,0.000000,66.666664,1.000000,33.333332,2.000000,2.000000,2.000000,4.000000,0.000000,17.295225,4.373077,1.306670,1.283269,1.203176,5.831676,1.129649,0.713770,0.586619,0.832392,8.258665,2.747200,1.732052,0.853536,0.740870,9.817526,1.879104,2.384552,1.208024,1.041227,0.171428,0.162574,0.391645,0.071983,0.126664
1698692363.116763,1698692363.117614,78.000000,0.000000,4202.563965,4186.666504,4215.384766,4176.410156,4219.487305,450.000000,1.000000,15.000000,,,,0.000000,4.000000,4.000000,4.000000,4.000000,0.000000,66.666664,,,,,,,,,,,,,,,,,,,,,,,,,,,,,,,,
1698692363.124644,1698692363.125594,79.000000,0.000000,4218.461426,4192.820313,4229.230957,4173.333496,4219.487305,0.000000,1.000000,15.000000,,,,0.000000,4.000000,4.000000,4.000000,4.000000,0.000000,66.666664,,,,,,,,,,,,,,,,,,,,,,,,,,,,,,,,
1698692363.132524,1698692363.133374,80.000000,0.000000,4241.025879,4227.692383,4250.769043,4192.820313,4220.000000,450.000000,1.000000,15.000000,,,,0.000000,4.000000,4.000000,4.000000,4.000000,0.000000,66.666664,,,,,,,,,,,,,,,,,,,,,,,,,,,,,,,,
1698692363.140404,1698692363.141354,81.000000,0.000000,4231.282227,4229.743652,4234.871582,4191.282227,4220.000000,450.000000,1.000000,15.000000,,,,0.000000,4.000000,4.000000,4.000000,4.000000,0.000000,66.666664,,,,,,,,,,,,,,,,,,,,,,,,,,,,,,,,
1698692363.148284,1698692363.149134,82.000000,0.000000,4237.948730,4223.589844,4232.307617,4194.871582,4218.974121,450.000000,1.000000,15.000000,,,,0.000000,4.000000,4.000000,4.000000,4.000000,0.000000,66.666664,,,,,,,,,,,,,,,,,,,,,,,,,,,,,,,,
1698692363.156165,1698692363.157115,83.000000,0.000000,4246.666504,4219.487305,4246.666504,4208.717773,4219.487305,0.000000,1.000000,15.000000,,,,0.000000,4.000000,4.000000,4.000000,4.000000,0.000000,66.666664,,,,,,,,,,,,,,,,,,,,,,,,,,,,,,,,
1698692363.164045,1698692363.165095,84.000000,0.000000,4252.307617,4225.641113,4263.589844,4216.922852,4219.487305,450.000000,1.000000,15.000000,,,,0.000000,4.000000,4.000000,4.000000,4.000000,0.000000,66.666664,,,,,,,,,,,,,,,,,,,,,,,,,,,,,,,,
1698692363.171925,1698692363.172875,85.000000,0.000000,4257.436035,4229.743652,4271.794922,4228.717773,4218.974121,450.000000,1.000000,15.000000,,,,0.000000,4.000000,4.000000,4.000000,4.000000,0.000000,66.666664,,,,,,,,,,,,,,,,,,,,,,,,,,,,,,,,
1698692363.179805,1698692363.180856,86.000000,0.000000,4232.820313,4205.128418,4247.692383,4214.358887,4217.948730,450.000000,1.000000,15.000000,,,,0.000000,4.000000,4.000000,4.000000,4.000000,0.000000,66.666664,,,,,,,,,,,,,,,,,,,,,,,,,,,,,,,,
1698692363.187686,1698692363.188636,87.000000,0.000000,4228.205078,4207.179688,4238.974121,4192.820313,4217.436035,0.000000,1.000000,15.000000,,,,0.000000,4.000000,4.000000,4.000000,4.000000,0.000000,66.666664,,,,,,,,,,,,,,,,,,,,,,,,,,,,,,,,
1698692363.195566,1698692363.196416,88.000000,0.000000,4233.846191,4221.538574,4234.871582,4180.000000,4218.461426,450.000000,1.000000,15.000000,,,,0.000000,4.000000,4.000000,4.000000,4.000000,0.000000,66.666664,,,,,,,,,,,,,,,,,,,,,,,,,,,,,,,,
1698692363.203446,1698692363.204197,89.000000,0.000000,4225.641113,4211.282227,4224.615234,4185.128418,4218.461426,450.000000,1.000000,15.000000,,,,0.000000,4.000000,4.000000,4.000000,4.000000,0.000000,66.666664,,,,,,,,,,,,,,,,,,,,,,,,,,,,,,,,
1698692363.211326,1698692363.211977,90.000000,0.000000,4227.692383,4209.230957,4240.000000,4201.538574,4219.487305,450.000000,1.000000,15.000000,,,,0.000000,4.000000,4.000000,4.000000,4.000000,0.000000,66.666664,,,,,,,,,,,,,,,,,,,,,,,,,,,,,,,,
1698692363.219207,1698692363.219957,91.000000,0.000000,4228.205078,4217.436035,4252.820313,4201.538574,4217.948730,0.000000,1.000000,15.000000,,,,0.000000,4.000000,4.000000,4.000000,4.000000,0.000000,66.666664,,,,,,,,,,,,,,,,,,,,,,,,,,,,,,,,
1698692363.227087,1698692363.227937,92.000000,0.000000,4233.846191,4221.538574,4251.794922,4216.922852,4218.974121,450.000000,1.000000,15.000000,,,,0.000000,4.000000,4.000000,4.000000,4.000000,0.000000,66.666664,,,,,,,,,,,,,,,,,,,,,,,,,,,,,,,,
1698692363.234967,1698692363.235918,93.000000,0.000000,4217.436035,4194.871582,4234.871582,4205.641113,4228.717773,450.000000,1.000000,15.000000,,,,0.000000,4.000000,4.000000,4.000000,4.000000,0.000000,66.666664,,,,,,,,19.746836,4.700877,1.386838,1.315598,1.267596,5.787153,1.356119,0.825517,0.692986,0.836419,8.757400,3.284298,2.044780,1.152166,0.744032,11.704092,2.326531,2.334367,1.080829,0.959538,0.268423,0.134601,0.326965,0.064978,0.123203
1698692363.242847,1698692363.243898,94.000000,0.000000,4201.025879,4196.922852,4230.769043,4173.333496,4233.333496,450.000000,1.000000,15.000000,,,,0.000000,4.000000,4.000000,4.000000,4.000000,0.000000,66.666664,,,,,,,,,,,,,,,,,,,,,,,,,,,,,,,,
1698692363.250728,1698692363.251878,95.000000,0.000000,4222.563965,4240.000000,4243.077148,4185.128418,4231.282227,0.000000,1.000000,15.000000,,,,0.000000,4.000000,4.000000,4.000000,4.000000,0.000000,66.666664,,,,,,,,,,,,,,,,,,,,,,,,,,,,,,,,
1698692363.258608,1698692363.259858,96.000000,0.000000,4223.077148,4223.589844,4232.820313,4188.717773,4230.256348,450.000000,1.000000,15.000000,,,,0.000000,4.000000,4.000000,4.000000,4.000000,0.000000,66.666664,,,,,,,,,,,,,,,,,,,,,,,,,,,,,,,,
1698692363.266488,1698692363.267839,97.000000,0.000000,4225.128418,4201.025879,4237.436035,4183.589844,4227.692383,450.000000,1.000000,15.000000,,,,0.000000,4.000000,4.000000,4.000000,4.000000,0.000000,66.666664,,,,,,,,,,,,,,,,,,,,,,,,,,,,,,,,
1698692363.274368,1698692363.275819,98.000000,0.000000,4244.102539,4219.487305,4239.487305,4194.871582,4224.615234,450.000000,1.000000,15.000000,,,,0.000000,4.000000,4.000000,4.000000,4.000000,0.000000,66.666664,,,,,,,,,,,,,,,,,,,,,,,,,,,,,,,,
1698692363.282249,1698692363.283799,99.000000,0.000000,4252.307617,4227.692383,4215.897461,4206.153809,4222.563965,0.000000,1.000000,15.000000,,,,0.000000,4.000000,4.000000,4.000000,4.000000,0.000000,66.666664,,,,,,,,,,,,,,,,,,,,,,,,,,,,,,,,
1698692363.290129,1698692363.291580,100.000000,0.000000,4255.384766,4219.487305,4213.846191,4210.256348,4220.000000,450.000000,1.000000,15.000000,,,,0.000000,4.000000,4.000000,4.000000,4.000000,0.000000,66.666664,,,,,,,,,,,,,,,,,,,,,,,,,,,,,,,,
1698692363.298009,1698692363.299560,101.000000,0.000000,4249.230957,4209.230957,4232.307617,4202.051270,4217.948730,450.000000,1.000000,15.000000,,,,0.000000,4.000000,4.000000,4.000000,4.000000,0.000000,66.666664,,,,,,,,,,,,,,,,,,,,,,,,,,,,,,,,
1698692363.305889,1698692363.307340,102.000000,0.000000,4267.179688,4233.846191,4262.563965,4225.128418,4220.000000,450.000000,1.000000,15.000000,,,,0.000000,4.000000,4.000000,4.000000,4.000000,0.000000,66.666664,,,,,,,,,,,,,,,,,,,,,,,,,,,,,,,,
1698692363.313770,1698692363.315321,103.000000,0.000000,4285.641113,4258.461426,4280.000000,4244.615234,4218.974121,0.000000,1.000000,15.000000,,,,0.000000,4.000000,4.000000,4.000000,4.000000,0.000000,66.666664,,,,,,,,,,,,,,,,,,,,,,,,,,,,,,,,
1698692363.321650,1698692363.323301,104.000000,0.000000,4269.743652,4252.307617,4292.307617,4230.769043,4217.948730,450.000000,1.000000,15.000000,,,,0.000000,4.000000,4.000000,4.000000,4.000000,0.000000,66.666664,,,,,,,,,,,,,,,,,,,,,,,,,,,,,,,,
1698692363.329530,1698692363.331281,105.000000,0.000000,4268.205078,4262.563965,4323.077148,4230.256348,4220.000000,450.000000,1.000000,15.000000,,,,0.000000,4.000000,4.000000,4.000000,4.000000,0.000000,66.666664,,,,,,,,,,,,,,,,,,,,,,,,,,,,,,,,
1698692363.337410,1698692363.339062,106.000000,0.000000,4261.538574,4266.666504,4310.769043,4228.205078,4220.000000,450.000000,1.000000,15.000000,,,,0.000000,4.000000,4.000000,4.000000,4.000000,0.000000,66.666664,,,,,,,,,,,,,,,,,,,,,,,,,,,,,,,,
1698692363.345291,1698692363.347042,107.000000,0.000000,4243.589844,4258.461426,4288.717773,4232.307617,4218.461426,0.000000,1.000000,15.000000,,,,0.000000,4.000000,4.000000,4.000000,4.000000,0.000000,66.666664,,,,,,,,,,,,,,,,,,,,,,,,,,,,,,,,
1698692363.353171,1698692363.354822,108.000000,0.000000,4240.512695,4244.102539,4315.384766,4234.871582,4217.948730,450.000000,1.000000,15.000000,,,,0.000000,4.000000,4.000000,4.000000,4.000000,0.000000,66.666664,,,,,,,,,,,,,,,,,,,,,,,,,,,,,,,,
1698692363.361051,1698692363.362802,109.000000,0.000000,4240.512695,4227.692383,4252.820313,4208.205078,4218.974121,450.000000,1.000000,15.000000,,,,0.000000,4.000000,4.000000,4.000000,4.000000,0.000000,66.666664,,,,,,,,21.126114,4.822526,1.563994,1.371226,1.229873,5.591178,1.566795,0.946459,0.816509,0.821830,9.265056,3.892819,2.450463,1.505948,0.705685,12.850295,2.807643,2.150872,1.017999,0.838301,0.404961,0.117162,0.264697,0.060162,0.117839
1698692363.368931,1698692363.370582,110.000000,0.000000,4242.051270,4233.846191,4041.025635,4193.846191,4218.461426,450.000000,1.000000,15.000000,,,,0.000000,4.000000,4.000000,4.000000,4.000000,0.000000,66.666664,,,,,,,,,,,,,,,,,,,,,,,,,,,,,,,,
1698692363.376812,1698692363.378562,111.000000,0.000000,4226.153809,4233.846191,3857.948730,4192.307617,4222.051270,0.000000,1.000000,15.000000,,,,0.000000,4.000000,4.000000,4.000000,4.000000,0.000000,66.666664,,,,,,,,,,,,,,,,,,,,,,,,,,,,,,,,
1698692363.384692,1698692363.386343,112.000000,0.000000,4217.436035,4227.692383,3846.153809,4198.461426,4230.256348,450.000000,1.000000,15.000000,,,,0.000000,4.000000,4.000000,4.000000,4.000000,0.000000,66.666664,,,,,,,,,,,,,,,,,,,,,,,,,,,,,,,,
1698692363.392572,1698692363.394323,113.000000,0.000000,4224.102539,4237.948730,3883.076904,4213.333496,4234.871582,450.000000,1.000000,15.000000,,,,0.000000,4.000000,4.000000,4.000000,4.000000,0.000000,66.666664,,,,,,,,,,,,,,,,,,,,,,,,,,,,,,,,
1698692363.400453,1698692363.402103,114.000000,0.000000,4214.358887,4244.102539,3868.205078,4206.666504,4230.769043,450.000000,1.000000,15.000000,,,,0.000000,4.000000,4.000000,4.000000,4.000000,0.000000,66.666664,,,,,,,,,,,,,,,,,,,,,,,,,,,,,,,,
1698692363.408333,1698692363.410083,115.000000,0.000000,4217.948730,4250.256348,3888.205078,4205.128418,4221.538574,0.000000,1.000000,15.000000,,,,0.000000,4.000000,4.000000,4.000000,4.000000,0.000000,66.666664,,,,,,,,,,,,,,,,,,,,,,,,,,,,,,,,
1698692363.416213,1698692363.417864,116.000000,0.000000,4218.461426,4246.153809,3919.487061,4222.051270,4216.922852,450.000000,1.000000,15.000000,,,,0.000000,4.000000,4.000000,4.000000,4.000000,0.000000,66.666664,,,,,,,,,,,,,,,,,,,,,,,,,,,,,,,,
1698692363.424093,1698692363.425844,117.000000,0.000000,4216.410156,4252.307617,3920.000000,4234.358887,4218.461426,450.000000,1.000000,15.000000,,,,0.000000,4.000000,4.000000,4.000000,4.000000,0.000000,66.666664,,,,,,,,,,,,,,,,,,,,,,,,,,,,,,,,
1698692363.431973,1698692363.433624,118.000000,0.000000,4224.102539,4270.769043,3925.128174,4228.717773,4218.974121,450.000000,1.000000,15.000000,,,,0.000000,4.000000,4.000000,4.000000,4.000000,0.000000,66.666664,,,,,,,,,,,,,,,,,,,,,,,,,,,,,,,,
1698692363.439854,1698692363.441404,119.000000,0.000000,4220.512695,4254.358887,3928.205078,4222.051270,4217.948730,0.000000,1.000000,15.000000,,,,0.000000,4.000000,4.000000,4.000000,4.000000,0.000000,66.666664,,,,,,,,,,,,,,,,,,,,,,,,,,,,,,,,
1698692363.447734,1698692363.449185,120.000000,0.000000,4226.153809,4254.358887,3937.435791,4245.128418,4217.436035,450.000000,1.000000,15.000000,,,,0.000000,4.000000,4.000000,4.000000,4.000000,0.000000,66.666664,,,,,,,,,,,,,,,,,,,,,,,,,,,,,,,,
1698692363.455614,1698692363.456965,121.000000,0.000000,4219.487305,4264.615234,3933.333252,4241.538574,4218.974121,450.000000,1.000000,15.000000,,,,0.000000,4.000000,4.000000,4.000000,4.000000,0.000000,66.666664,,,,,,,,,,,,,,,,,,,,,,,,,,,,,,,,
1698692363.463494,1698692363.464745,122.000000,0.000000,4212.307617,4270.769043,3941.025635,4222.051270,4226.153809,450.000000,1.000000,15.000000,,,,0.000000,4.000000,4.000000,4.000000,4.000000,0.000000,66.666664,,,,,,,,,,,,,,,,,,,,,,,,,,,,,,,,
1698692363.471375,1698692363.472726,123.000000,0.000000,4229.743652,4278.974121,3962.564209,4232.307617,4234.871582,0.000000,1.000000,15.000000,,,,0.000000,4.000000,4.000000,4.000000,4.000000,0.000000,66.666664,,,,,,,,,,,,,,,,,,,,,,,,,,,,,,,,
1698692363.479255,1698692363.480706,124.000000,0.000000,4232.307617,4272.820313,3955.897461,4226.153809,4231.794922,450.000000,1.000000,15.000000,,,,0.000000,4.000000,4.000000,4.000000,4.000000,0.000000,66.666664,,,,,,,,,,,,,,,,,,,,,,,,,,,,,,,,
1698692363.487135,1698692363.488486,125.000000,0.000000,4240.512695,4276.922852,3965.128174,4236.922852,4221.538574,450.000000,1.000000,15.000000,,,,0.000000,4.000000,4.000000,4.000000,4.000000,0.000000,66.666664,,,,,,,,20.847591,4.697522,1.764427,1.417854,1.101524,5.314083,1.762412,1.055474,0.923450,0.789170,10.602483,4.564447,3.016293,1.860384,0.647662,13.109750,3.287927,2.000085,0.990765,0.702008,0.572638,0.113643,0.223740,0.059956,0.110862
1698692363.495016,1698692363.496267,126.000000,0.000000,4236.922852,4268.717773,3971.281982,4253.333496,4217.948730,450.000000,1.000000,15.000000,,,,0.000000,4.000000,4.000000,4.000000,4.000000,0.000000,66.666664,,,,,,,,,,,,,,,,,,,,,,,,,,,,,,,,
1698692363.502896,1698692363.504047,127.000000,0.000000,4214.358887,4254.358887,3963.076904,4237.948730,4220.000000,228.000000,1.000000,15.000000,,,,0.000000,4.000000,4.000000,4.000000,4.000000,0.000000,66.666664,,,,,,,,,,,,,,,,,,,,,,,,,,,,,,,,
1698692363.510776,1698692363.511827,0.000000,0.000000,4210.256348,4270.769043,3974.871826,4241.538574,4219.487305,450.000000,1.000000,15.000000,,,,0.000000,4.000000,4.000000,4.000000,4.000000,0.000000,66.666664,,,,,,,,,,,,,,,,,,,,,,,,,,,,,,,,
1698692363.518656,1698692363.519608,1.000000,0.000000,4196.410156,4264.615234,3968.205078,4234.871582,4217.948730,450.000000,1.000000,15.000000,,,,0.000000,4.000000,4.000000,4.000000,4.000000,0.000000,66.666664,,,,,,,,,,,,,,,,,,,,,,,,,,,,,,,,
1698692363.526537,1698692363.527388,2.000000,0.000000,4182.051270,4248.205078,3962.564209,4206.153809,4220.000000,1023.000000,1.000000,15.000000,,,,0.000000,4.000000,4.000000,4.000000,4.000000,0.000000,66.666664,,,,,,,,,,,,,,,,,,,,,,,,,,,,,,,,
1698692363.534417,1698692363.535368,3.000000,0.000000,4183.589844,4246.153809,3973.846191,4193.846191,4221.025879,450.000000,1.000000,15.000000,,,,0.000000,4.000000,4.000000,4.000000,4.000000,0.000000,66.666664,,,,,,,,,,,,,,,,,,,,,,,,,,,,,,,,
1698692363.542297,1698692363.543349,4.000000,0.000000,4197.436035,4252.307617,3978.461426,4201.025879,4218.974121,1023.000000,1.000000,15.000000,,,,0.000000,4.000000,4.000000,4.000000,4.000000,0.000000,66.666664,,,,,,,,,,,,,,,,,,,,,,,,,,,,,,,,
1698692363.550177,1698692363.551329,5.000000,0.000000,4227.692383,4264.615234,3983.076904,4222.051270,4218.974121,450.000000,1.000000,15.000000,,,,0.000000,4.000000,4.000000,4.000000,4.000000,0.000000,66.666664,,,,,,,,,,,,,,,,,,,,,,,,,,,,,,,,
1698692363.558057,1698692363.559309,6.000000,0.000000,4236.410156,4260.512695,3987.692383,4230.256348,4219.487305,1023.000000,1.000000,15.000000,,,,0.000000,4.000000,4.000000,4.000000,4.000000,0.000000,66.666664,,,,,,,,,,,,,,,,,,,,,,,,,,,,,,,,
1698692363.565938,1698692363.567289,7.000000,0.000000,4237.948730,4262.563965,3999.487061,4236.922852,4218.974121,450.000000,1.000000,15.000000,,,,0.000000,4.000000,4.000000,4.000000,4.000000,0.000000,66.666664,,,,,,,,,,,,,,,,,,,,,,,,,,,,,,,,
1698692363.573818,1698692363.575070,8.000000,0.000000,4237.436035,4256.410156,3984.615479,4229.743652,4219.487305,450.000000,1.000000,15.000000,,,,0.000000,4.000000,4.000000,4.000000,4.000000,0.000000,66.666664,,,,,,,,,,,,,,,,,,,,,,,,,,,,,,,,
1698692363.581698,1698692363.583050,9.000000,0.000000,4230.256348,4246.153809,3960.512939,4210.256348,4219.487305,315.000000,1.000000,15.000000,,,,0.000000,4.000000,4.000000,4.000000,4.000000,0.000000,66.666664,,,,,,,,,,,,,,,,,,,,,,,,,,,,,,,,
1698692363.589579,1698692363.590830,10.000000,0.000000,4245.128418,4268.717773,3975.897461,4213.333496,4219.487305,450.000000,1.000000,15.000000,,,,0.000000,4.000000,4.000000,4.000000,4.000000,0.000000,66.666664,,,,,,,,,,,,,,,,,,,,,,,,,,,,,,,,
1698692363.597459,1698692363.598811,11.000000,0.000000,4236.410156,4264.615234,3977.435791,4199.487305,4218.974121,0.000000,1.000000,15.000000,,,,0.000000,4.000000,4.000000,4.000000,4.000000,0.000000,66.666664,,,,,,,,,,,,,,,,,,,,,,,,,,,,,,,,
1698692363.605339,1698692363.606791,12.000000,0.000000,4224.102539,4258.461426,3984.615479,4196.410156,4218.461426,450.000000,1.000000,15.000000,,,,0.000000,4.000000,4.000000,4.000000,4.000000,0.000000,66.666664,,,,,,,,,,,,,,,,,,,,,,,,,,,,,,,,
1698692363.613219,1698692363.614771,13.000000,0.000000,4229.230957,4262.563965,4007.179443,4216.922852,4220.000000,450.000000,1.000000,15.000000,,,,0.000000,4.000000,4.000000,4.000000,4.000000,0.000000,66.666664,1.000000,33.333332,2.000000,2.000000,2.000000,4.000000,0.000000,19.089994,4.359711,1.908490,1.427450,0.928944,5.120225,1.989938,1.156731,0.997727,0.752468,15.543761,6.271722,4.030385,2.278176,0.629050,12.723862,3.706795,2.003497,0.982438,0.577843,0.748589,0.124082,0.216527,0.064609,0.102422
1698692363.621100,1698692363.622551,14.000000,0.000000,4218.461426,4244.102539,3996.923096,4213.846191,4218.974121,450.000000,1.000000,15.000000,,,,0.000000,4.000000,4.000000,4.000000,4.000000,0.000000,66.666664,,,,,,,,,,,,,,,,,,,,,,,,,,,,,,,,
1698692363.628980,1698692363.630532,15.000000,0.000000,4220.512695,4250.256348,3990.769287,4221.025879,4218.974121,0.000000,1.000000,15.000000,,,,0.000000,4.000000,4.000000,4.000000,4.000000,0.000000,66.666664,,,,,,,,,,,,,,,,,,,,,,,,,,,,,,,,
1698692363.636860,1698692363.638312,16.000000,0.000000,4221.025879,4252.307617,3995.384521,4224.102539,4225.641113,0.000000,1.000000,15.000000,,,,0.000000,4.000000,4.000000,4.000000,4.000000,0.000000,66.666664,,,,,,,,,,,,,,,,,,,,,,,,,,,,,,,,
1698692363.644740,1698692363.646292,17.000000,0.000000,4210.256348,4227.692383,3991.281982,4200.000000,4233.846191,0.000000,1.000000,15.000000,,,,0.000000,4.000000,4.000000,4.000000,4.000000,0.000000,66.666664,,,,,,,,,,,,,,,,,,,,,,,,,,,,,,,,
1698692363.652620,1698692363.654072,18.000000,0.000000,4198.461426,4215.384766,3981.025635,4174.358887,4230.256348,0.000000,1.000000,15.000000,,,,0.000000,4.000000,4.000000,4.000000,4.000000,0.000000,66.666664,,,,,,,,,,,,,,,,,,,,,,,,,,,,,,,,
1698692363.660501,1698692363.662052,19.000000,0.000000,4180.512695,4217.436035,3973.846191,4164.102539,4220.000000,0.000000,1.000000,15.000000,,,,0.000000,4.000000,4.000000,4.000000,4.000000,0.000000,66.666664,,,,,,,,,,,,,,,,,,,,,,,,,,,,,,,,
1698692363.668381,1698692363.669833,20.000000,0.000000,4170.256348,4217.436035,3990.769287,4174.871582,4216.410156,0.000000,1.000000,15.000000,,,,0.000000,4.000000,4.000000,4.000000,4.000000,0.000000,66.666664,,,,,,,,,,,,,,,,,,,,,,,,,,,,,,,,
1698692363.676261,1698692363.677813,21.000000,0.000000,4168.205078,4205.128418,4004.615479,4176.410156,4218.974121,0.000000,1.000000,15.000000,,,,0.000000,4.000000,4.000000,4.000000,4.000000,0.000000,66.666664,,,,,,,,,,,,,,,,,,,,,,,,,,,,,,,,
1698692363.684142,1698692363.685593,22.000000,0.000000,4193.846191,4221.538574,4015.897461,4191.282227,4219.487305,0.000000,1.000000,15.000000,,,,0.000000,4.000000,4.000000,4.000000,4.000000,0.000000,66.666664,,,,,,,,,,,,,,,,,,,,,,,,,,,,,,,,
1698692363.692022,1698692363.693573,23.000000,0.000000,4210.256348,4231.794922,4022.051270,4208.717773,4217.948730,0.000000,1.000000,15.000000,,,,0.000000,4.000000,4.000000,4.000000,4.000000,0.000000,66.666664,,,,,,,,,,,,,,,,,,,,,,,,,,,,,,,,
1698692363.699902,1698692363.701354,24.000000,0.000000,4177.436035,4192.820313,4007.692383,4185.641113,4217.436035,0.000000,1.000000,15.000000,,,,0.000000,4.000000,4.000000,4.000000,4.000000,0.000000,66.666664,,,,,,,,,,,,,,,,,,,,,,,,,,,,,,,,
1698692363.707782,1698692363.709334,25.000000,0.000000,4170.769043,4192.820313,4009.230713,4175.384766,4217.948730,0.000000,1.000000,15.000000,,,,0.000000,4.000000,4.000000,4.000000,4.000000,0.000000,66.666664,,,,,,,,,,,,,,,,,,,,,,,,,,,,,,,,
1698692363.715663,1698692363.717114,26.000000,0.000000,4192.820313,4223.589844,4018.974365,4188.717773,4218.461426,0.000000,1.000000,15.000000,,,,0.000000,4.000000,4.000000,4.000000,4.000000,0.000000,66.666664,,,,,,,,,,,,,,,,,,,,,,,,,,,,,,,,
1698692363.723543,1698692363.724894,27.000000,0.000000,4210.769043,4237.948730,4038.461426,4211.282227,4218.461426,0.000000,1.000000,15.000000,,,,0.000000,4.000000,4.000000,4.000000,4.000000,0.000000,66.666664,,,,,,,,,,,,,,,,,,,,,,,,,,,,,,,,
1698692363.731423,1698692363.732675,28.000000,0.000000,4215.897461,4237.948730,4047.179443,4226.153809,4218.461426,0.000000,1.000000,15.000000,,,,0.000000,4.000000,4.000000,4.000000,4.000000,0.000000,66.666664,,,,,,,,,,,,,,,,,,,,,,,,,,,,,,,,
1698692363.739303,1698692363.740455,29.000000,0.000000,4186.153809,4213.333496,4011.281982,4189.743652,4218.461426,0.000000,1.000000,15.000000,,,,0.000000,4.000000,4.000000,4.000000,4.000000,0.000000,66.666664,,,,,,,,16.728470,3.892840,1.951613,1.386514,0.765271,5.216974,2.280578,1.266873,1.035532,0.730313,29.785625,11.396390,6.116484,2.968845,0.739998,12.151801,3.992299,2.181112,0.983085,0.486719,0.898604,0.144783,0.247662,0.073369,0.092818
1698692363.747183,1698692363.748235,30.000000,0.000000,4181.538574,4205.128418,4000.000000,4173.333496,4218.461426,0.000000,1.000000,15.000000,,,,0.000000,4.000000,4.000000,4.000000,4.000000,0.000000,66.666664,,,,,,,,,,,,,,,,,,,,,,,,,,,,,,,,
1698692363.755064,1698692363.756016,31.000000,0.000000,4190.256348,4203.077148,4004.615479,4192.307617,4218.461426,0.000000,1.000000,15.000000,,,,0.000000,4.000000,4.000000,4.000000,4.000000,0.000000,66.666664,,,,,,,,,,,,,,,,,,,,,,,,,,,,,,,,
1698692363.762944,1698692363.763796,32.000000,0.000000,4176.922852,4194.871582,3991.281982,4192.820313,4218.461426,0.000000,1.000000,15.000000,,,,0.000000,4.000000,4.000000,4.000000,4.000000,0.000000,66.666664,,,,,,,,,,,,,,,,,,,,,,,,,,,,,,,,
1698692363.770824,1698692363.771576,33.000000,0.000000,4173.846191,4190.769043,3991.281982,4181.025879,4218.461426,0.000000,1.000000,15.000000,,,,0.000000,4.000000,4.000000,4.000000,4.000000,0.000000,66.666664,,,,,,,,,,,,,,,,,,,,,,,,,,,,,,,,
1698692363.778705,1698692363.779357,34.000000,0.000000,4169.743652,4182.563965,3998.974365,4170.769043,4218.461426,0.000000,1.000000,15.000000,,,,0.000000,4.000000,4.000000,4.000000,4.000000,0.000000,66.666664,,,,,,,,,,,,,,,,,,,,,,,,,,,,,,,,
1698692363.786585,1698692363.787137,35.000000,0.000000,4173.333496,4190.769043,4020.512939,4173.846191,4218.461426,0.000000,1.000000,15.000000,,,,0.000000,4.000000,4.000000,4.000000,4.000000,0.000000,66.666664,,,,,,,,,,,,,,,,,,,,,,,,,,,,,,,,
1698692363.794465,1698692363.795117,36.000000,0.000000,4166.666504,4188.717773,4029.230713,4162.563965,4218.461426,0.000000,1.000000,15.000000,,,,0.000000,4.000000,4.000000,4.000000,4.000000,0.000000,66.666664,,,,,,,,,,,,,,,,,,,,,,,,,,,,,,,,
1698692363.802345,1698692363.802897,37.000000,0.000000,4152.820313,4180.512695,4023.076904,4151.794922,4218.461426,0.000000,1.000000,15.000000,,,,0.000000,4.000000,4.000000,4.000000,4.000000,0.000000,66.666664,,,,,,,,,,,,,,,,,,,,,,,,,,,,,,,,
1698692363.810226,1698692363.810678,38.000000,0.000000,4166.666504,4192.820313,4033.333252,4164.615234,4218.461426,0.000000,1.000000,15.000000,,,,0.000000,4.000000,4.000000,4.000000,4.000000,0.000000,66.666664,,,,,,,,,,,,,,,,,,,,,,,,,,,,,,,,
1698692363.818106,1698692363.818458,39.000000,0.000000,4168.205078,4186.666504,4027.692383,4154.871582,4218.461426,0.000000,1.000000,15.000000,,,,0.000000,4.000000,4.000000,4.000000,4.000000,0.000000,66.666664,,,,,,,,,,,,,,,,,,,,,,,,,,,,,,,,
1698692363.825986,1698692363.826238,40.000000,0.000000,4170.256348,4192.820313,4021.538574,4156.410156,4218.461426,0.000000,1.000000,15.000000,,,,0.000000,4.000000,4.000000,4.000000,4.000000,0.000000,66.666664,,,,,,,,,,,,,,,,,,,,,,,,,,,,,,,,
1698692363.833866,1698692363.834019,41.000000,0.000000,4178.461426,4205.128418,4026.666748,4174.871582,4218.461426,0.000000,1.000000,15.000000,,,,0.000000,4.000000,4.000000,4.000000,4.000000,0.000000,66.666664,,,,,,,,,,,,,,,,,,,,,,,,,,,,,,,,
1698692363.841746,1698692363.841799,42.000000,0.000000,4175.897461,4192.820313,4029.230713,4169.230957,4218.461426,0.000000,1.000000,15.000000,,,,0.000000,4.000000,4.000000,4.000000,4.000000,0.000000,66.666664,,,,,,,,,,,,,,,,,,,,,,,,,,,,,,,,
1698692363.849627,1698692363.849779,43.000000,0.000000,4180.512695,4190.769043,4031.794922,4169.743652,4218.461426,0.000000,1.000000,15.000000,,,,0.000000,4.000000,4.000000,4.000000,4.000000,0.000000,66.666664,,,,,,,,,,,,,,,,,,,,,,,,,,,,,,,,
1698692363.857507,1698692363.857759,44.000000,0.000000,4182.051270,4194.871582,4021.025635,4167.692383,4218.461426,0.000000,1.000000,15.000000,,,,0.000000,4.000000,4.000000,4.000000,4.000000,0.000000,66.666664,,,,,,,,,,,,,,,,,,,,,,,,,,,,,,,,
1698692363.865387,1698692363.865740,45.000000,0.000000,4192.820313,4192.820313,4021.538574,4162.051270,4218.461426,0.000000,1.000000,15.000000,,,,0.000000,4.000000,4.000000,4.000000,4.000000,0.000000,66.666664,,,,,,,,14.708316,3.356009,1.933174,1.297234,0.643607,5.526025,2.591242,1.392833,1.035450,0.733107,58.498150,21.920057,9.779210,4.120000,1.040579,11.680822,4.038687,2.483922,1.006290,0.436330,0.988139,0.173937,0.310319,0.085583,0.082576
1698692363.873268,1698692363.873720,46.000000,0.000000,4194.358887,4190.769043,4028.205078,4164.615234,4218.461426,0.000000,1.000000,15.000000,,,,0.000000,4.000000,4.000000,4.000000,4.000000,0.000000,66.666664,,,,,,,,,,,,,,,,,,,,,,,,,,,,,,,,
1698692363.881148,1698692363.881700,47.000000,0.000000,4178.974121,4196.922852,4041.025635,4169.230957,4218.461426,0.000000,1.000000,15.000000,,,,0.000000,4.000000,4.000000,4.000000,4.000000,0.000000,66.666664,,,,,,,,,,,,,,,,,,,,,,,,,,,,,,,,
1698692363.889028,1698692363.889680,48.000000,0.000000,4185.128418,4211.282227,4058.974365,4183.589844,4218.461426,0.000000,1.000000,15.000000,,,,0.000000,4.000000,4.000000,4.000000,4.000000,0.000000,66.666664,,,,,,,,,,,,,,,,,,,,,,,,,,,,,,,,
1698692363.896908,1698692363.897661,49.000000,0.000000,4181.538574,4196.922852,4040.512939,4169.230957,4218.461426,0.000000,1.000000,15.000000,,,,0.000000,4.000000,4.000000,4.000000,4.000000,0.000000,66.666664,,,,,,,,,,,,,,,,,,,,,,,,,,,,,,,,
1698692363.904789,1698692363.905441,50.000000,0.000000,4177.436035,4188.717773,4036.923096,4157.948730,4218.461426,0.000000,1.000000,15.000000,,,,0.000000,4.000000,4.000000,4.000000,4.000000,0.000000,66.666664,,,,,,,,,,,,,,,,,,,,,,,,,,,,,,,,
1698692363.912669,1698692363.913421,51.000000,0.000000,4180.000000,4186.666504,4058.461426,4163.077148,4217.948730,0.000000,1.000000,15.000000,,,,0.000000,4.000000,4.000000,4.000000,4.000000,0.000000,66.666664,,,,,,,,,,,,,,,,,,,,,,,,,,,,,,,,
1698692363.920549,1698692363.921202,52.000000,0.000000,4169.743652,4166.153809,4049.230713,4146.153809,4218.974121,0.000000,1.000000,15.000000,,,,0.000000,4.000000,4.000000,4.000000,4.000000,0.000000,66.666664,,,,,,,,,,,,,,,,,,,,,,,,,,,,,,,,
1698692363.928429,1698692363.929182,53.000000,0.000000,4178.461426,4180.512695,4049.743652,4153.846191,4220.512695,0.000000,1.000000,15.000000,,,,0.000000,4.000000,4.000000,4.000000,4.000000,0.000000,66.666664,,,,,,,,,,,,,,,,,,,,,,,,,,,,,,,,
1698692363.936310,1698692363.936962,54.000000,0.000000,4179.487305,4186.666504,4058.461426,4162.051270,4221.025879,0.000000,1.000000,15.000000,,,,0.000000,4.000000,4.000000,4.000000,4.000000,0.000000,66.666664,,,,,,,,,,,,,,,,,,,,,,,,,,,,,,,,
1698692363.944190,1698692363.944942,55.000000,0.000000,4180.512695,4180.512695,4062.564209,4158.974121,4221.025879,0.000000,1.000000,15.000000,,,,0.000000,4.000000,4.000000,4.000000,4.000000,0.000000,66.666664,,,,,,,,,,,,,,,,,,,,,,,,,,,,,,,,
1698692363.952070,1698692363.952723,56.000000,0.000000,4203.589844,4201.025879,4072.307617,4166.666504,4221.025879,0.000000,1.000000,15.000000,,,,0.000000,4.000000,4.000000,4.000000,4.000000,0.000000,66.666664,,,,,,,,,,,,,,,,,,,,,,,,,,,,,,,,
1698692363.959950,1698692363.960703,57.000000,0.000000,4208.717773,4211.282227,4076.410156,4166.153809,4221.025879,0.000000,1.000000,15.000000,,,,0.000000,4.000000,4.000000,4.000000,4.000000,0.000000,66.666664,,,,,,,,,,,,,,,,,,,,,,,,,,,,,,,,
1698692363.967831,1698692363.968483,58.000000,0.000000,4206.153809,4205.128418,4083.076904,4175.897461,4221.025879,0.000000,1.000000,15.000000,,,,0.000000,4.000000,4.000000,4.000000,4.000000,0.000000,66.666664,,,,,,,,,,,,,,,,,,,,,,,,,,,,,,,,
1698692363.975711,1698692363.976463,59.000000,0.000000,4184.102539,4178.461426,4060.512939,4169.743652,4221.025879,0.000000,1.000000,15.000000,,,,0.000000,4.000000,4.000000,4.000000,4.000000,0.000000,66.666664,,,,,,,,,,,,,,,,,,,,,,,,,,,,,,,,
1698692363.983591,1698692363.984243,60.000000,0.000000,4172.820313,4170.256348,4041.025635,4162.051270,4221.025879,0.000000,1.000000,15.000000,,,,0.000000,4.000000,4.000000,4.000000,4.000000,0.000000,66.666664,,,,,,,,,,,,,,,,,,,,,,,,,,,,,,,,
1698692363.991471,1698692363.992224,61.000000,0.000000,4200.000000,4194.871582,4078.461426,4169.230957,4221.025879,0.000000,1.000000,15.000000,,,,0.000000,4.000000,4.000000,4.000000,4.000000,0.000000,66.666664,,,,,,,,13.529841,2.838533,1.937439,1.191103,0.570680,5.957833,2.849005,1.526137,1.009091,0.758017,99.443901,37.548138,14.883045,5.717012,1.509013,11.367842,3.802209,2.837520,1.090223,0.424373,0.996777,0.210646,0.386584,0.100426,0.072686
1698692363.999352,1698692364.000004,62.000000,0.000000,4200.000000,4188.717773,4089.743652,4161.538574,4221.025879,0.000000,1.000000,15.000000,,,,0.000000,4.000000,4.000000,4.000000,4.000000,0.000000,66.666664,,,,,,,,,,,,,,,,,,,,,,,,,,,,,,,,
1698692364.007232,1698692364.007984,63.000000,0.000000,4198.974121,4186.666504,4050.769287,4169.230957,4221.025879,0.000000,1.000000,15.000000,,,,0.000000,4.000000,4.000000,4.000000,4.000000,0.000000,66.666664,,,,,,,,,,,,,,,,,,,,,,,,,,,,,,,,
1698692364.015112,1698692364.015764,64.000000,0.000000,4199.487305,4188.717773,4159.487305,4171.794922,4220.512695,450.000000,1.000000,15.000000,,,,0.000000,4.000000,4.000000,4.000000,4.000000,0.000000,66.666664,,,,,,,,,,,,,,,,,,,,,,,,,,,,,,,,
1698692364.022992,1698692364.023744,65.000000,0.000000,4176.410156,4182.563965,4500.512695,4147.692383,4221.025879,450.000000,1.000000,15.000000,,,,0.000000,4.000000,4.000000,4.000000,4.000000,0.000000,66.666664,,,,,,,,,,,,,,,,,,,,,,,,,,,,,,,,
1698692364.030873,1698692364.031525,66.000000,0.000000,4170.769043,4176.410156,4762.051270,4147.179688,4221.025879,325.000000,1.000000,15.000000,,,,0.000000,2.000000,4.000000,4.000000,4.000000,0.000000,50.000000,,,,,,,,,,,,,,,,,,,,,,,,,,,,,,,,
1698692364.038753,1698692364.039505,67.000000,0.000000,4190.769043,4166.153809,4763.077148,4157.948730,4219.487305,450.000000,1.000000,15.000000,,,,0.000000,2.000000,4.000000,4.000000,4.000000,0.000000,50.000000,,,,,,,,,,,,,,,,,,,,,,,,,,,,,,,,
1698692364.046633,1698692364.047285,68.000000,0.000000,4215.897461,4178.461426,4748.205078,4158.974121,4217.436035,1023.000000,1.000000,15.000000,,,,0.000000,2.000000,4.000000,4.000000,4.000000,0.000000,50.000000,,,,,,,,,,,,,,,,,,,,,,,,,,,,,,,,
1698692364.054513,1698692364.055265,69.000000,0.000000,4210.769043,4178.461426,4787.179688,4145.128418,4217.948730,450.000000,1.000000,15.000000,,,,0.000000,2.000000,4.000000,4.000000,4.000000,0.000000,50.000000,,,,,,,,,,,,,,,,,,,,,,,,,,,,,,,,
1698692364.062394,1698692364.063046,70.000000,0.000000,4189.743652,4162.051270,4778.461426,4136.922852,4219.487305,1023.000000,1.000000,15.000000,,,,0.000000,2.000000,4.000000,4.000000,4.000000,0.000000,50.000000,,,,,,,,,,,,,,,,,,,,,,,,,,,,,,,,
1698692364.070274,1698692364.071026,71.000000,0.000000,4194.358887,4172.307617,4770.769043,4158.461426,4218.974121,450.000000,1.000000,15.000000,,,,0.000000,2.000000,4.000000,4.000000,4.000000,0.000000,50.000000,,,,,,,,,,,,,,,,,,,,,,,,,,,,,,,,
1698692364.078154,1698692364.078806,72.000000,0.000000,4198.461426,4176.410156,4766.153809,4153.846191,4218.974121,450.000000,1.000000,15.000000,,,,0.000000,2.000000,4.000000,4.000000,4.000000,0.000000,50.000000,,,,,,,,,,,,,,,,,,,,,,,,,,,,,,,,
1698692364.086034,1698692364.086786,73.000000,0.000000,4207.179688,4176.410156,4756.410156,4147.692383,4218.974121,1023.000000,1.000000,15.000000,,,,0.000000,2.000000,4.000000,4.000000,4.000000,0.000000,50.000000,,,,,,,,,,,,,,,,,,,,,,,,,,,,,,,,
1698692364.093915,1698692364.094767,74.000000,0.000000,4209.230957,4180.512695,4755.897461,4164.102539,4218.974121,450.000000,1.000000,15.000000,,,,0.000000,2.000000,4.000000,4.000000,4.000000,0.000000,50.000000,,,,,,,,,,,,,,,,,,,,,,,,,,,,,,,,
1698692364.101795,1698692364.102547,75.000000,0.000000,4197.948730,4180.512695,4752.307617,4173.333496,4218.974121,0.000000,1.000000,15.000000,,,,0.000000,2.000000,4.000000,4.000000,4.000000,0.000000,50.000000,,,,,,,,,,,,,,,,,,,,,,,,,,,,,,,,
1698692364.109675,1698692364.110327,76.000000,0.000000,4212.307617,4192.820313,4752.307617,4188.205078,4218.974121,450.000000,1.000000,15.000000,,,,0.000000,2.000000,4.000000,4.000000,4.000000,0.000000,50.000000,,,,,,,,,,,,,,,,,,,,,,,,,,,,,,,,
1698692364.117556,1698692364.118108,77.000000,0.000000,4213.333496,4188.717773,4736.922852,4183.077148,4218.974121,450.000000,1.000000,15.000000,,,,0.000000,2.000000,4.000000,4.000000,4.000000,0.000000,50.000000,1.000000,16.666666,2.000000,2.000000,0.000000,4.000000,0.000000,13.193793,2.444172,2.016747,1.100305,0.534890,6.274433,2.980014,1.635238,0.977164,0.789735,145.030334,55.101326,20.307314,7.493885,2.037764,11.059859,3.333684,3.164092,1.257575,0.445100,0.925329,0.251908,0.455340,0.116502,0.064049
1698692364.125436,1698692364.125888,78.000000,0.000000,4186.666504,4178.461426,4723.589844,4166.153809,4218.974121,450.000000,1.000000,15.000000,,,,0.000000,2.000000,4.000000,4.000000,4.000000,0.000000,50.000000,,,,,,,,,,,,,,,,,,,,,,,,,,,,,,,,
1698692364.133316,1698692364.133668,79.000000,0.000000,4165.128418,4162.051270,4703.077148,4148.205078,4218.974121,0.000000,1.000000,15.000000,,,,0.000000,2.000000,4.000000,4.000000,4.000000,0.000000,50.000000,,,,,,,,,,,,,,,,,,,,,,,,,,,,,,,,
1698692364.141196,1698692364.141449,80.000000,0.000000,4164.615234,4149.743652,4682.051270,4135.897461,4218.974121,450.000000,1.000000,15.000000,,,,0.000000,2.000000,4.000000,4.000000,4.000000,0.000000,50.000000,,,,,,,,,,,,,,,,,,,,,,,,,,,,,,,,
1698692364.149076,1698692364.149429,81.000000,0.000000,4175.897461,4160.000000,4690.769043,4153.846191,4218.974121,450.000000,1.000000,15.000000,,,,0.000000,2.000000,4.000000,4.000000,4.000000,0.000000,50.000000,,,,,,,,,,,,,,,,,,,,,,,,,,,,,,,,
1698692364.156957,1698692364.157409,82.000000,0.000000,4163.589844,4147.692383,4677.948730,4152.820313,4218.974121,450.000000,1.000000,15.000000,,,,0.000000,2.000000,4.000000,4.000000,4.000000,0.000000,50.000000,,,,,,,,,,,,,,,,,,,,,,,,,,,,,,,,
1698692364.164837,1698692364.165389,83.000000,0.000000,4189.230957,4147.692383,4670.256348,4144.615234,4218.974121,0.000000,1.000000,15.000000,,,,0.000000,2.000000,4.000000,4.000000,4.000000,0.000000,50.000000,,,,,,,,,,,,,,,,,,,,,,,,,,,,,,,,
1698692364.172717,1698692364.173369,84.000000,0.000000,4227.692383,4160.000000,4677.948730,4140.512695,4218.974121,450.000000,1.000000,15.000000,,,,0.000000,2.000000,4.000000,4.000000,4.000000,0.000000,50.000000,,,,,,,,,,,,,,,,,,,,,,,,,,,,,,,,
1698692364.180597,1698692364.181350,85.000000,0.000000,4206.666504,4145.641113,4663.589844,4129.230957,4218.974121,450.000000,1.000000,15.000000,,,,0.000000,2.000000,4.000000,4.000000,4.000000,0.000000,50.000000,,,,,,,,,,,,,,,,,,,,,,,,,,,,,,,,
1698692364.188478,1698692364.189330,86.000000,0.000000,4183.589844,4145.641113,4658.461426,4134.871582,4218.974121,450.000000,1.000000,15.000000,,,,0.000000,2.000000,4.000000,4.000000,4.000000,0.000000,50.000000,,,,,,,,,,,,,,,,,,,,,,,,,,,,,,,,
1698692364.196358,1698692364.197310,87.000000,0.000000,4172.820313,4147.692383,4650.769043,4118.461426,4218.974121,0.000000,1.000000,15.000000,,,,0.000000,2.000000,4.000000,4.000000,4.000000,0.000000,50.000000,,,,,,,,,,,,,,,,,,,,,,,,,,,,,,,,
1698692364.204238,1698692364.205290,88.000000,0.000000,4165.641113,4137.436035,4645.641113,4104.102539,4218.974121,450.000000,1.000000,15.000000,,,,0.000000,2.000000,4.000000,4.000000,4.000000,0.000000,50.000000,,,,,,,,,,,,,,,,,,,,,,,,,,,,,,,,
1698692364.212119,1698692364.213271,89.000000,0.000000,4163.077148,4135.384766,4654.358887,4125.128418,4218.974121,450.000000,1.000000,15.000000,,,,0.000000,2.000000,4.000000,4.000000,4.000000,0.000000,50.000000,,,,,,,,,,,,,,,,,,,,,,,,,,,,,,,,
1698692364.219999,1698692364.221251,90.000000,0.000000,4154.871582,4139.487305,4642.051270,4144.102539,4218.974121,450.000000,1.000000,15.000000,,,,0.000000,2.000000,4.000000,4.000000,4.000000,0.000000,50.000000,,,,,,,,,,,,,,,,,,,,,,,,,,,,,,,,
1698692364.227879,1698692364.229231,91.000000,0.000000,4165.128418,4153.846191,4632.820313,4156.922852,4218.974121,0.000000,1.000000,15.000000,,,,0.000000,2.000000,4.000000,4.000000,4.000000,0.000000,50.000000,,,,,,,,,,,,,,,,,,,,,,,,,,,,,,,,
1698692364.235759,1698692364.237011,92.000000,0.000000,4151.794922,4145.641113,4630.769043,4145.128418,4218.974121,450.000000,1.000000,15.000000,,,,0.000000,2.000000,4.000000,4.000000,4.000000,0.000000,50.000000,,,,,,,,,,,,,,,,,,,,,,,,,,,,,,,,
1698692364.243639,1698692364.244992,93.000000,0.000000,4134.358887,4137.436035,4624.102539,4137.948730,4218.974121,450.000000,1.000000,15.000000,,,,0.000000,2.000000,4.000000,4.000000,4.000000,0.000000,50.000000,,,,,,,,13.266683,2.276998,2.154377,1.061739,0.521315,6.334306,2.945579,1.680528,0.960888,0.809653,187.695847,71.392731,24.886053,9.221606,2.543624,10.529856,2.763385,3.397118,1.488796,0.489962,0.794239,0.287983,0.496385,0.130583,0.057026
1698692364.251520,1698692364.252772,94.000000,0.000000,4157.436035,4147.692383,4611.282227,4145.641113,4218.974121,450.000000,1.000000,15.000000,,,,0.000000,2.000000,4.000000,4.000000,4.000000,0.000000,50.000000,,,,,,,,,,,,,,,,,,,,,,,,,,,,,,,,
1698692364.259400,1698692364.260752,95.000000,0.000000,4162.051270,4141.538574,4604.102539,4132.307617,4218.974121,0.000000,1.000000,15.000000,,,,0.000000,2.000000,4.000000,4.000000,4.000000,0.000000,50.000000,,,,,,,,,,,,,,,,,,,,,,,,,,,,,,,,
1698692364.267280,1698692364.268533,96.000000,0.000000,4161.538574,4143.589844,4623.589844,4140.512695,4218.974121,450.000000,1.000000,15.000000,,,,0.000000,2.000000,4.000000,4.000000,4.000000,0.000000,50.000000,,,,,,,,,,,,,,,,,,,,,,,,,,,,,,,,
1698692364.275160,1698692364.276513,97.000000,0.000000,4169.743652,4160.000000,4626.666504,4168.717773,4218.974121,450.000000,1.000000,15.000000,,,,0.000000,2.000000,4.000000,4.000000,4.000000,0.000000,50.000000,,,,,,,,,,,,,,,,,,,,,,,,,,,,,,,,
1698692364.283041,1698692364.284293,98.000000,0.000000,4180.000000,4174.358887,4625.128418,4181.538574,4218.461426,450.000000,1.000000,15.000000,,,,0.000000,2.000000,4.000000,4.000000,4.000000,0.000000,50.000000,,,,,,,,,,,,,,,,,,,,,,,,,,,,,,,,
1698692364.290921,1698692364.292273,99.000000,0.000000,4198.461426,4176.410156,4628.205078,4181.538574,4220.512695,0.000000,1.000000,15.000000,,,,0.000000,2.000000,4.000000,4.000000,4.000000,0.000000,50.000000,,,,,,,,,,,,,,,,,,,,,,,,,,,,,,,,
1698692364.298801,1698692364.300254,100.000000,0.000000,4187.179688,4147.692383,4593.333496,4164.615234,4217.948730,450.000000,1.000000,15.000000,,,,0.000000,2.000000,4.000000,4.000000,4.000000,0.000000,50.000000,,,,,,,,,,,,,,,,,,,,,,,,,,,,,,,,
1698692364.306682,1698692364.308234,101.000000,0.000000,4170.256348,4145.641113,4571.794922,4165.128418,4218.461426,450.000000,1.000000,15.000000,,,,0.000000,2.000000,4.000000,4.000000,4.000000,0.000000,50.000000,,,,,,,,,,,,,,,,,,,,,,,,,,,,,,,,
1698692364.314562,1698692364.316014,102.000000,0.000000,4155.897461,4153.846191,4562.051270,4160.000000,4226.153809,450.000000,1.000000,15.000000,,,,0.000000,2.000000,4.000000,4.000000,4.000000,0.000000,50.000000,,,,,,,,,,,,,,,,,,,,,,,,,,,,,,,,
1698692364.322442,1698692364.323994,103.000000,0.000000,4166.153809,4153.846191,4546.666504,4145.641113,4226.153809,0.000000,1.000000,15.000000,,,,0.000000,2.000000,4.000000,4.000000,4.000000,0.000000,50.000000,,,,,,,,,,,,,,,,,,,,,,,,,,,,,,,,
1698692364.330322,1698692364.331775,104.000000,0.000000,4207.179688,4166.153809,4550.256348,4173.846191,4218.461426,450.000000,1.000000,15.000000,,,,0.000000,2.000000,4.000000,4.000000,4.000000,0.000000,50.000000,,,,,,,,,,,,,,,,,,,,,,,,,,,,,,,,
1698692364.338202,1698692364.339755,105.000000,0.000000,4228.717773,4164.102539,4553.846191,4193.846191,4217.436035,450.000000,1.000000,15.000000,,,,0.000000,2.000000,4.000000,4.000000,4.000000,0.000000,50.000000,,,,,,,,,,,,,,,,,,,,,,,,,,,,,,,,
1698692364.346083,1698692364.347535,106.000000,0.000000,4261.538574,4166.153809,4560.000000,4188.717773,4220.512695,450.000000,1.000000,15.000000,,,,0.000000,2.000000,4.000000,4.000000,4.000000,0.000000,50.000000,,,,,,,,,,,,,,,,,,,,,,,,,,,,,,,,
1698692364.353963,1698692364.355515,107.000000,0.000000,4309.230957,4168.205078,4554.871582,4168.205078,4219.487305,0.000000,1.000000,15.000000,,,,0.000000,2.000000,4.000000,4.000000,4.000000,0.000000,50.000000,,,,,,,,,,,,,,,,,,,,,,,,,,,,,,,,
1698692364.361843,1698692364.363295,108.000000,0.000000,4355.897461,4172.307617,4546.666504,4165.128418,4217.948730,450.000000,1.000000,15.000000,,,,0.000000,2.000000,4.000000,4.000000,4.000000,0.000000,50.000000,,,,,,,,,,,,,,,,,,,,,,,,,,,,,,,,
1698692364.369723,1698692364.371275,109.000000,0.000000,4408.205078,4201.025879,4570.769043,4202.051270,4218.461426,450.000000,1.000000,15.000000,,,,0.000000,2.000000,4.000000,4.000000,4.000000,0.000000,50.000000,,,,,,,,13.231663,2.379350,2.277959,1.110895,0.522541,6.121270,2.751048,1.657565,0.970171,0.805265,226.563904,85.291847,29.189320,10.928940,3.072638,9.690163,2.226945,3.486077,1.718863,0.546297,0.634367,0.306306,0.493607,0.137739,0.050902
1698692364.377604,1698692364.379056,110.000000,0.000000,4414.358887,4196.922852,4575.384766,4212.307617,4218.461426,450.000000,1.000000,15.000000,,,,0.000000,2.000000,4.000000,4.000000,4.000000,0.000000,50.000000,,,,,,,,,,,,,,,,,,,,,,,,,,,,,,,,
1698692364.385484,1698692364.386836,111.000000,0.000000,4400.000000,4180.512695,4564.615234,4206.666504,4219.487305,0.000000,1.000000,15.000000,,,,0.000000,2.000000,4.000000,4.000000,4.000000,0.000000,50.000000,,,,,,,,,,,,,,,,,,,,,,,,,,,,,,,,
1698692364.393364,1698692364.394616,112.000000,0.000000,4390.769043,4180.512695,4563.589844,4207.692383,4218.974121,450.000000,1.000000,15.000000,,,,0.000000,2.000000,4.000000,4.000000,4.000000,0.000000,50.000000,,,,,,,,,,,,,,,,,,,,,,,,,,,,,,,,
1698692364.401245,1698692364.402597,113.000000,0.000000,4362.563965,4190.769043,4558.974121,4212.307617,4218.974121,450.000000,1.000000,15.000000,,,,0.000000,2.000000,4.000000,4.000000,4.000000,0.000000,50.000000,,,,,,,,,,,,,,,,,,,,,,,,,,,,,,,,
1698692364.409125,1698692364.410577,114.000000,0.000000,4338.974121,4207.179688,4544.615234,4217.948730,4219.487305,450.000000,1.000000,15.000000,,,,0.000000,2.000000,4.000000,4.000000,4.000000,0.000000,50.000000,,,,,,,,,,,,,,,,,,,,,,,,,,,,,,,,
1698692364.417005,1698692364.418357,115.000000,0.000000,4308.205078,4190.769043,4514.871582,4190.256348,4218.974121,0.000000,1.000000,15.000000,,,,0.000000,2.000000,4.000000,4.000000,4.000000,0.000000,50.000000,,,,,,,,,,,,,,,,,,,,,,,,,,,,,,,,
1698692364.424885,1698692364.426138,116.000000,0.000000,4279.487305,4186.666504,4513.846191,4183.589844,4218.974121,450.000000,1.000000,15.000000,,,,0.000000,2.000000,4.000000,4.000000,4.000000,0.000000,50.000000,,,,,,,,,,,,,,,,,,,,,,,,,,,,,,,,
1698692364.432765,1698692364.434118,117.000000,0.000000,4254.871582,4198.974121,4523.589844,4207.179688,4218.974121,450.000000,1.000000,15.000000,,,,0.000000,2.000000,4.000000,4.000000,4.000000,0.000000,50.000000,,,,,,,,,,,,,,,,,,,,,,,,,,,,,,,,
1698692364.440646,1698692364.442098,118.000000,0.000000,4231.794922,4190.769043,4523.077148,4204.102539,4218.974121,450.000000,1.000000,15.000000,,,,0.000000,2.000000,4.000000,4.000000,4.000000,0.000000,50.000000,,,,,,,,,,,,,,,,,,,,,,,,,,,,,,,,
1698692364.448526,1698692364.449879,119.000000,0.000000,4239.487305,4194.871582,4543.077148,4211.282227,4218.974121,0.000000,1.000000,15.000000,,,,0.000000,2.000000,4.000000,4.000000,4.000000,0.000000,50.000000,,,,,,,,,,,,,,,,,,,,,,,,,,,,,,,,
1698692364.456406,1698692364.457659,120.000000,0.000000,4233.333496,4186.666504,4537.436035,4226.153809,4218.974121,450.000000,1.000000,15.000000,,,,0.000000,2.000000,4.000000,4.000000,4.000000,0.000000,50.000000,,,,,,,,,,,,,,,,,,,,,,,,,,,,,,,,
1698692364.464286,1698692364.465639,121.000000,0.000000,4225.128418,4178.461426,4523.589844,4223.589844,4218.974121,450.000000,1.000000,15.000000,,,,0.000000,2.000000,4.000000,4.000000,4.000000,0.000000,50.000000,,,,,,,,,,,,,,,,,,,,,,,,,,,,,,,,
1698692364.472167,1698692364.473619,122.000000,0.000000,4233.333496,4196.922852,4533.846191,4225.641113,4218.974121,450.000000,1.000000,15.000000,,,,0.000000,2.000000,4.000000,4.000000,4.000000,0.000000,50.000000,,,,,,,,,,,,,,,,,,,,,,,,,,,,,,,,
1698692364.480047,1698692364.481600,123.000000,0.000000,4224.102539,4201.025879,4532.820313,4236.922852,4218.974121,0.000000,1.000000,15.000000,,,,0.000000,2.000000,4.000000,4.000000,4.000000,0.000000,50.000000,,,,,,,,,,,,,,,,,,,,,,,,,,,,,,,,
1698692364.487927,1698692364.489580,124.000000,0.000000,4227.692383,4211.282227,4536.922852,4251.282227,4218.974121,450.000000,1.000000,15.000000,,,,0.000000,2.000000,4.000000,4.000000,4.000000,0.000000,50.000000,,,,,,,,,,,,,,,,,,,,,,,,,,,,,,,,
1698692364.495808,1698692364.497560,125.000000,0.000000,4233.333496,4215.384766,4539.487305,4248.717773,4218.974121,450.000000,1.000000,15.000000,,,,0.000000,2.000000,4.000000,4.000000,4.000000,0.000000,50.000000,,,,,,,,12.687515,2.682836,2.297024,1.268194,0.539271,5.635017,2.478897,1.584464,1.003412,0.774614,270.839203,97.837967,34.764553,12.859221,3.732124,8.574603,1.856535,3.384577,1.873896,0.598289,0.475260,0.296900,0.442637,0.134143,0.044436
1698692364.503688,1698692364.505540,126.000000,0.000000,4229.230957,4207.179688,4534.358887,4247.179688,4218.974121,450.000000,1.000000,15.000000,,,,0.000000,2.000000,4.000000,4.000000,4.000000,0.000000,50.000000,,,,,,,,,,,,,,,,,,,,,,,,,,,,,,,,
1698692364.511568,1698692364.513320,127.000000,0.000000,4222.051270,4194.871582,4523.077148,4241.538574,4220.512695,228.000000,1.000000,15.000000,,,,0.000000,2.000000,4.000000,4.000000,4.000000,0.000000,50.000000,,,,,,,,,,,,,,,,,,,,,,,,,,,,,,,,
1698692364.519448,1698692364.521201,0.000000,0.000000,4210.256348,4186.666504,4498.461426,4221.025879,4217.436035,450.000000,1.000000,15.000000,,,,0.000000,2.000000,4.000000,4.000000,4.000000,0.000000,50.000000,,,,,,,,,,,,,,,,,,,,,,,,,,,,,,,,
1698692364.527329,1698692364.529181,1.000000,0.000000,4215.897461,4192.820313,4486.666504,4225.641113,4218.974121,450.000000,1.000000,15.000000,,,,0.000000,2.000000,4.000000,4.000000,4.000000,0.000000,50.000000,,,,,,,,,,,,,,,,,,,,,,,,,,,,,,,,
