title:chess game, start timestamp:1698692247.316408, stop timestamp:1698692308.451400, headset type:INSIGHT, headset serial:5A688E18, headset firmware:926, channels:53, sampling rate:eeg_128;pow_8, samples:7759      , version:2.2, 
Timestamp,OriginalTimestamp,EEG.Counter,EEG.Interpolated,EEG.AF3,EEG.T7,EEG.Pz,EEG.T8,EEG.AF4,EEG.RawCq,EEG.Battery,EEG.BatteryPercent,MarkerIndex,MarkerType,MarkerValueInt,EEG.MarkerHardware,CQ.AF3,CQ.T7,CQ.Pz,CQ.T8,CQ.AF4,CQ.Overall,EQ.SampleRateQuality,EQ.OVERALL,EQ.AF3,EQ.T7,EQ.Pz,EQ.T8,EQ.AF4,POW.AF3.Theta,POW.AF3.Alpha,POW.AF3.BetaL,POW.AF3.BetaH,POW.AF3.Gamma,POW.T7.Theta,POW.T7.Alpha,POW.T7.BetaL,POW.T7.BetaH,POW.T7.Gamma,POW.Pz.Theta,POW.Pz.Alpha,POW.Pz.BetaL,POW.Pz.BetaH,POW.Pz.Gamma,POW.T8.Theta,POW.T8.Alpha,POW.T8.BetaL,POW.T8.BetaH,POW.T8.Gamma,POW.AF4.Theta,POW.AF4.Alpha,POW.AF4.BetaL,POW.AF4.BetaH,POW.AF4.Gamma
1698692247.316408,1698692247.316392,103.000000,0.000000,4333.333496,4289.230957,4215.897461,4266.666504,4233.333496,0.000000,1.000000,21.000000,,,,0.000000,4.000000,2.000000,4.000000,4.000000,0.000000,50.000000,,,,,,,,,,,,,,,,,,,,,,,,,,,,,,,,
1698692247.324288,1698692247.324373,104.000000,0.000000,4340.000000,4295.384766,4223.077148,4274.871582,4230.769043,450.000000,1.000000,21.000000,,,,0.000000,4.000000,2.000000,4.000000,4.000000,0.000000,50.000000,,,,,,,,,,,,,,,,,,,,,,,,,,,,,,,,
1698692247.332169,1698692247.332153,105.000000,0.000000,4335.897461,4301.538574,4222.563965,4273.333496,4231.282227,450.000000,1.000000,21.000000,,,,0.000000,4.000000,2.000000,4.000000,4.000000,0.000000,50.000000,,,,,,,,,,,,,,,,,,,,,,,,,,,,,,,,
1698692247.340049,1698692247.339933,106.000000,0.000000,4310.769043,4293.333496,4213.846191,4262.051270,4232.820313,450.000000,1.000000,21.000000,,,,0.000000,4.000000,2.000000,4.000000,4.000000,0.000000,50.000000,,,,,,,,,,,,,,,,,,,,,,,,,,,,,,,,
1698692247.347929,1698692247.347914,107.000000,0.000000,4307.179688,4285.128418,4222.051270,4269.230957,4227.692383,0.000000,1.000000,21.000000,,,,0.000000,4.000000,2.000000,4.000000,4.000000,0.000000,50.000000,,,,,,,,,,,,,,,,,,,,,,,,,,,,,,,,
1698692247.355809,1698692247.355894,108.000000,0.000000,4301.025879,4272.820313,4218.461426,4266.153809,4217.436035,450.000000,1.000000,21.000000,,,,0.000000,4.000000,2.000000,4.000000,4.000000,0.000000,50.000000,,,,,,,,,,,,,,,,,,,,,,,,,,,,,,,,
1698692247.363690,1698692247.363874,109.000000,0.000000,4303.077148,4281.025879,4220.000000,4270.769043,4218.974121,450.000000,1.000000,21.000000,,,,0.000000,4.000000,2.000000,4.000000,4.000000,0.000000,50.000000,,,,,,,,50.932590,12.969834,4.358282,2.293219,1.813866,38.868961,11.520832,10.011363,2.516920,1.676926,47.711288,15.806097,5.218168,2.992980,1.450655,45.034801,12.960312,6.115192,1.860600,1.261871,0.379431,0.577749,0.258566,0.093031,0.101185
1698692247.371570,1698692247.371854,110.000000,0.000000,4321.538574,4274.871582,4229.743652,4288.717773,4229.743652,450.000000,1.000000,21.000000,,,,0.000000,4.000000,2.000000,4.000000,4.000000,0.000000,50.000000,,,,,,,,,,,,,,,,,,,,,,,,,,,,,,,,
1698692247.379450,1698692247.379834,111.000000,0.000000,4328.717773,4258.461426,4232.820313,4293.846191,4233.333496,0.000000,1.000000,21.000000,,,,0.000000,4.000000,2.000000,4.000000,4.000000,0.000000,50.000000,,,,,,,,,,,,,,,,,,,,,,,,,,,,,,,,
1698692247.387330,1698692247.387615,112.000000,0.000000,4333.333496,4272.820313,4227.692383,4291.794922,4231.794922,450.000000,1.000000,21.000000,,,,0.000000,4.000000,2.000000,4.000000,4.000000,0.000000,50.000000,,,,,,,,,,,,,,,,,,,,,,,,,,,,,,,,
1698692247.395211,1698692247.395595,113.000000,0.000000,4325.641113,4266.666504,4202.563965,4268.717773,4233.333496,450.000000,1.000000,21.000000,,,,0.000000,4.000000,2.000000,4.000000,4.000000,0.000000,50.000000,,,,,,,,,,,,,,,,,,,,,,,,,,,,,,,,
1698692247.403091,1698692247.403375,114.000000,0.000000,4321.538574,4258.461426,4198.461426,4251.282227,4232.307617,450.000000,1.000000,21.000000,,,,0.000000,4.000000,2.000000,4.000000,4.000000,0.000000,50.000000,,,,,,,,,,,,,,,,,,,,,,,,,,,,,,,,
1698692247.410971,1698692247.411356,115.000000,0.000000,4303.077148,4250.256348,4191.794922,4230.256348,4233.333496,0.000000,1.000000,21.000000,,,,0.000000,4.000000,2.000000,4.000000,4.000000,0.000000,50.000000,,,,,,,,,,,,,,,,,,,,,,,,,,,,,,,,
1698692247.418852,1698692247.419136,116.000000,0.000000,4277.436035,4231.794922,4170.256348,4205.641113,4233.333496,450.000000,1.000000,21.000000,,,,0.000000,4.000000,2.000000,4.000000,4.000000,0.000000,50.000000,,,,,,,,,,,,,,,,,,,,,,,,,,,,,,,,
1698692247.426732,1698692247.427116,117.000000,0.000000,4290.256348,4237.948730,4193.846191,4226.666504,4224.615234,450.000000,1.000000,21.000000,,,,0.000000,4.000000,2.000000,4.000000,4.000000,0.000000,50.000000,,,,,,,,,,,,,,,,,,,,,,,,,,,,,,,,
1698692247.434612,1698692247.434896,118.000000,0.000000,4288.205078,4235.897461,4221.025879,4242.051270,4222.051270,450.000000,1.000000,21.000000,,,,0.000000,4.000000,2.000000,4.000000,4.000000,0.000000,50.000000,,,,,,,,,,,,,,,,,,,,,,,,,,,,,,,,
1698692247.442492,1698692247.442876,119.000000,0.000000,4285.128418,4225.641113,4223.589844,4243.589844,4230.769043,0.000000,1.000000,21.000000,,,,0.000000,4.000000,2.000000,4.000000,4.000000,0.000000,50.000000,,,,,,,,,,,,,,,,,,,,,,,,,,,,,,,,
1698692247.450372,1698692247.450657,120.000000,0.000000,4303.589844,4225.641113,4221.538574,4254.871582,4232.820313,450.000000,1.000000,21.000000,,,,0.000000,4.000000,2.000000,4.000000,4.000000,0.000000,50.000000,,,,,,,,,,,,,,,,,,,,,,,,,,,,,,,,
1698692247.458253,1698692247.458637,121.000000,0.000000,4306.666504,4231.794922,4220.512695,4253.846191,4229.230957,450.000000,1.000000,21.000000,,,,0.000000,4.000000,2.000000,4.000000,4.000000,0.000000,50.000000,,,,,,,,,,,,,,,,,,,,,,,,,,,,,,,,
1698692247.466133,1698692247.466417,122.000000,0.000000,4307.692383,4244.102539,4225.641113,4243.077148,4231.794922,450.000000,1.000000,21.000000,,,,0.000000,4.000000,2.000000,4.000000,4.000000,0.000000,50.000000,,,,,,,,,,,,,,,,,,,,,,,,,,,,,,,,
1698692247.474013,1698692247.474397,123.000000,0.000000,4300.000000,4235.897461,4217.436035,4219.487305,4235.384766,0.000000,1.000000,21.000000,,,,0.000000,4.000000,2.000000,4.000000,4.000000,0.000000,50.000000,,,,,,,,,,,,,,,,,,,,,,,,,,,,,,,,
1698692247.481893,1698692247.482178,124.000000,0.000000,4301.025879,4242.051270,4218.974121,4223.077148,4233.333496,450.000000,1.000000,21.000000,,,,0.000000,4.000000,2.000000,4.000000,4.000000,0.000000,50.000000,,,,,,,,,,,,,,,,,,,,,,,,,,,,,,,,
1698692247.489774,1698692247.490158,125.000000,0.000000,4304.615234,4250.256348,4208.717773,4236.922852,4229.230957,450.000000,1.000000,21.000000,,,,0.000000,4.000000,2.000000,4.000000,4.000000,0.000000,50.000000,,,,,,,,43.331898,10.433273,3.745295,1.982428,1.577546,33.166904,10.225065,9.172607,2.286103,1.526192,39.903114,13.416228,4.481440,2.809482,1.351018,38.998779,11.362967,5.390462,1.669631,1.165047,0.343645,0.426356,0.186896,0.074302,0.088516
1698692247.497654,1698692247.497938,126.000000,0.000000,4283.077148,4219.487305,4176.922852,4214.871582,4229.743652,450.000000,1.000000,21.000000,,,,0.000000,4.000000,2.000000,4.000000,4.000000,0.000000,50.000000,,,,,,,,,,,,,,,,,,,,,,,,,,,,,,,,
1698692247.505534,1698692247.505918,127.000000,0.000000,4283.589844,4209.230957,4187.692383,4213.846191,4233.333496,229.000000,1.000000,21.000000,,,,0.000000,4.000000,2.000000,4.000000,4.000000,0.000000,50.000000,,,,,,,,,,,,,,,,,,,,,,,,,,,,,,,,
1698692247.513415,1698692247.513698,0.000000,0.000000,4284.102539,4211.282227,4191.794922,4213.846191,4227.179688,450.000000,1.000000,21.000000,,,,0.000000,4.000000,2.000000,4.000000,4.000000,0.000000,50.000000,,,,,,,,,,,,,,,,,,,,,,,,,,,,,,,,
1698692247.521295,1698692247.521479,1.000000,0.000000,4264.615234,4198.974121,4168.717773,4191.282227,4223.077148,450.000000,1.000000,21.000000,,,,0.000000,4.000000,2.000000,4.000000,4.000000,0.000000,50.000000,,,,,,,,,,,,,,,,,,,,,,,,,,,,,,,,
1698692247.529175,1698692247.529259,2.000000,0.000000,4256.922852,4196.922852,4169.230957,4183.589844,4229.743652,274.000000,1.000000,21.000000,,,,0.000000,2.000000,2.000000,4.000000,4.000000,0.000000,33.333332,,,,,,,,,,,,,,,,,,,,,,,,,,,,,,,,
1698692247.537055,1698692247.537039,3.000000,0.000000,4254.871582,4205.128418,4182.051270,4187.179688,4232.820313,450.000000,1.000000,21.000000,,,,0.000000,2.000000,2.000000,4.000000,4.000000,0.000000,33.333332,,,,,,,,,,,,,,,,,,,,,,,,,,,,,,,,
1698692247.544935,1698692247.544820,4.000000,0.000000,4263.077148,4217.436035,4200.000000,4199.487305,4230.256348,299.000000,1.000000,21.000000,,,,0.000000,2.000000,2.000000,4.000000,4.000000,0.000000,33.333332,,,,,,,,,,,,,,,,,,,,,,,,,,,,,,,,
1698692247.552816,1698692247.552600,5.000000,0.000000,4260.512695,4207.179688,4199.487305,4201.025879,4231.282227,450.000000,1.000000,21.000000,,,,0.000000,2.000000,2.000000,4.000000,4.000000,0.000000,33.333332,,,,,,,,,,,,,,,,,,,,,,,,,,,,,,,,
1698692247.560696,1698692247.560380,6.000000,0.000000,4257.948730,4209.230957,4194.358887,4197.948730,4230.256348,296.000000,1.000000,21.000000,,,,0.000000,2.000000,2.000000,2.000000,4.000000,0.000000,33.333332,,,,,,,,,,,,,,,,,,,,,,,,,,,,,,,,
1698692247.568576,1698692247.568161,7.000000,0.000000,4267.179688,4227.692383,4200.512695,4206.153809,4232.307617,450.000000,1.000000,21.000000,,,,0.000000,2.000000,2.000000,2.000000,4.000000,0.000000,33.333332,,,,,,,,,,,,,,,,,,,,,,,,,,,,,,,,
1698692247.576456,1698692247.575941,8.000000,0.000000,4253.333496,4201.025879,4186.153809,4195.384766,4232.307617,450.000000,1.000000,21.000000,,,,0.000000,2.000000,2.000000,2.000000,4.000000,0.000000,33.333332,,,,,,,,,,,,,,,,,,,,,,,,,,,,,,,,
1698692247.584337,1698692247.583921,9.000000,0.000000,4252.307617,4180.512695,4176.410156,4200.000000,4223.077148,1023.000000,1.000000,21.000000,,,,0.000000,2.000000,2.000000,2.000000,4.000000,0.000000,33.333332,,,,,,,,,,,,,,,,,,,,,,,,,,,,,,,,
1698692247.592217,1698692247.591901,10.000000,0.000000,4256.922852,4184.615234,4173.846191,4211.282227,4224.102539,450.000000,1.000000,21.000000,,,,0.000000,2.000000,2.000000,2.000000,4.000000,0.000000,33.333332,,,,,,,,,,,,,,,,,,,,,,,,,,,,,,,,
1698692247.600097,1698692247.599882,11.000000,0.000000,4242.563965,4184.615234,4166.153809,4195.384766,4232.820313,0.000000,1.000000,21.000000,,,,0.000000,2.000000,2.000000,2.000000,4.000000,0.000000,33.333332,,,,,,,,,,,,,,,,,,,,,,,,,,,,,,,,
1698692247.607978,1698692247.607862,12.000000,0.000000,4235.897461,4188.717773,4161.538574,4177.436035,4231.282227,450.000000,1.000000,21.000000,,,,0.000000,2.000000,2.000000,2.000000,4.000000,0.000000,33.333332,,,,,,,,,,,,,,,,,,,,,,,,,,,,,,,,
1698692247.615858,1698692247.615842,13.000000,0.000000,4227.179688,4182.563965,4146.666504,4160.512695,4228.717773,450.000000,1.000000,21.000000,,,,0.000000,2.000000,2.000000,2.000000,4.000000,0.000000,33.333332,1.000000,33.333332,2.000000,2.000000,2.000000,3.000000,0.000000,32.982624,7.432667,2.877046,1.576914,1.270896,24.798716,8.205181,7.570741,1.921189,1.321362,28.878901,9.977280,3.400398,2.445770,1.172278,29.364534,9.068891,4.321546,1.432655,1.048647,0.300564,0.336936,0.141956,0.065509,0.078832
1698692247.623738,1698692247.623822,14.000000,0.000000,4228.205078,4180.512695,4153.846191,4167.179688,4231.794922,450.000000,1.000000,21.000000,,,,0.000000,2.000000,2.000000,2.000000,4.000000,0.000000,33.333332,,,,,,,,,,,,,,,,,,,,,,,,,,,,,,,,
1698692247.631618,1698692247.631603,15.000000,0.000000,4218.461426,4172.307617,4164.615234,4171.794922,4232.820313,0.000000,1.000000,21.000000,,,,0.000000,2.000000,2.000000,2.000000,4.000000,0.000000,33.333332,,,,,,,,,,,,,,,,,,,,,,,,,,,,,,,,
1698692247.639498,1698692247.639383,16.000000,0.000000,4201.025879,4168.205078,4167.179688,4161.025879,4230.256348,0.000000,1.000000,21.000000,,,,0.000000,2.000000,2.000000,2.000000,4.000000,0.000000,33.333332,,,,,,,,,,,,,,,,,,,,,,,,,,,,,,,,
1698692247.647379,1698692247.647363,17.000000,0.000000,4215.897461,4176.410156,4178.974121,4170.256348,4227.692383,0.000000,1.000000,21.000000,,,,0.000000,2.000000,2.000000,2.000000,4.000000,0.000000,33.333332,,,,,,,,,,,,,,,,,,,,,,,,,,,,,,,,
1698692247.655259,1698692247.655343,18.000000,0.000000,4216.410156,4147.692383,4169.743652,4169.743652,4228.205078,0.000000,1.000000,21.000000,,,,0.000000,2.000000,2.000000,2.000000,4.000000,0.000000,33.333332,,,,,,,,,,,,,,,,,,,,,,,,,,,,,,,,
1698692247.663139,1698692247.663324,19.000000,0.000000,4210.769043,4145.641113,4170.256348,4177.436035,4232.307617,0.000000,1.000000,21.000000,,,,0.000000,2.000000,2.000000,2.000000,4.000000,0.000000,33.333332,,,,,,,,,,,,,,,,,,,,,,,,,,,,,,,,
1698692247.671019,1698692247.671304,20.000000,0.000000,4209.230957,4168.205078,4174.358887,4183.077148,4231.282227,0.000000,1.000000,21.000000,,,,0.000000,2.000000,2.000000,2.000000,4.000000,0.000000,33.333332,,,,,,,,,,,,,,,,,,,,,,,,,,,,,,,,
1698692247.678900,1698692247.679284,21.000000,0.000000,4214.871582,4170.256348,4164.102539,4171.282227,4229.743652,0.000000,1.000000,21.000000,,,,0.000000,2.000000,2.000000,2.000000,4.000000,0.000000,33.333332,,,,,,,,,,,,,,,,,,,,,,,,,,,,,,,,
1698692247.686780,1698692247.687064,22.000000,0.000000,4243.077148,4180.512695,4162.051270,4175.897461,4231.282227,0.000000,1.000000,21.000000,,,,0.000000,2.000000,2.000000,2.000000,4.000000,0.000000,33.333332,,,,,,,,,,,,,,,,,,,,,,,,,,,,,,,,
1698692247.694660,1698692247.695045,23.000000,0.000000,4252.820313,4184.615234,4149.743652,4168.205078,4232.307617,0.000000,1.000000,21.000000,,,,0.000000,2.000000,2.000000,2.000000,4.000000,0.000000,33.333332,,,,,,,,,,,,,,,,,,,,,,,,,,,,,,,,
1698692247.702541,1698692247.702825,24.000000,0.000000,4276.922852,4203.077148,4168.205078,4182.563965,4226.153809,0.000000,1.000000,21.000000,,,,0.000000,2.000000,2.000000,2.000000,4.000000,0.000000,33.333332,,,,,,,,,,,,,,,,,,,,,,,,,,,,,,,,
1698692247.710421,1698692247.710805,25.000000,0.000000,4305.641113,4223.589844,4207.692383,4223.077148,4221.025879,0.000000,1.000000,21.000000,,,,0.000000,2.000000,2.000000,2.000000,4.000000,0.000000,33.333332,,,,,,,,,,,,,,,,,,,,,,,,,,,,,,,,
1698692247.718301,1698692247.718586,26.000000,0.000000,4284.615234,4209.230957,4208.205078,4217.436035,4225.128418,0.000000,1.000000,21.000000,,,,0.000000,2.000000,2.000000,2.000000,4.000000,0.000000,33.333332,,,,,,,,,,,,,,,,,,,,,,,,,,,,,,,,
1698692247.726181,1698692247.726566,27.000000,0.000000,4270.769043,4194.871582,4198.974121,4192.307617,4232.307617,0.000000,1.000000,21.000000,,,,0.000000,2.000000,2.000000,2.000000,4.000000,0.000000,33.333332,,,,,,,,,,,,,,,,,,,,,,,,,,,,,,,,
1698692247.734061,1698692247.734346,28.000000,0.000000,4266.666504,4186.666504,4192.307617,4178.461426,4231.282227,0.000000,1.000000,21.000000,,,,0.000000,2.000000,2.000000,2.000000,4.000000,0.000000,33.333332,,,,,,,,,,,,,,,,,,,,,,,,,,,,,,,,
1698692247.741942,1698692247.742326,29.000000,0.000000,4248.205078,4180.512695,4183.589844,4172.820313,4229.743652,0.000000,1.000000,21.000000,,,,0.000000,2.000000,2.000000,2.000000,4.000000,0.000000,33.333332,,,,,,,,23.128275,4.648687,2.089949,1.200592,0.983832,16.332518,6.077405,5.717222,1.521893,1.128323,17.991087,6.585345,2.283351,2.008383,0.978282,18.993416,6.829499,3.258228,1.236389,0.949130,0.259773,0.297019,0.128394,0.065987,0.073441
1698692247.749822,1698692247.750107,30.000000,0.000000,4226.153809,4172.307617,4170.256348,4164.102539,4230.256348,0.000000,1.000000,21.000000,,,,0.000000,2.000000,2.000000,2.000000,4.000000,0.000000,33.333332,,,,,,,,,,,,,,,,,,,,,,,,,,,,,,,,
1698692247.757702,1698692247.758087,31.000000,0.000000,4215.897461,4168.205078,4166.153809,4160.512695,4232.820313,0.000000,1.000000,21.000000,,,,0.000000,2.000000,2.000000,2.000000,4.000000,0.000000,33.333332,,,,,,,,,,,,,,,,,,,,,,,,,,,,,,,,
1698692247.765582,1698692247.765867,32.000000,0.000000,4234.871582,4184.615234,4188.205078,4186.153809,4232.820313,0.000000,1.000000,21.000000,,,,0.000000,2.000000,2.000000,2.000000,4.000000,0.000000,33.333332,,,,,,,,,,,,,,,,,,,,,,,,,,,,,,,,
1698692247.773463,1698692247.773847,33.000000,0.000000,4239.487305,4190.769043,4185.128418,4189.743652,4222.563965,0.000000,1.000000,21.000000,,,,0.000000,2.000000,2.000000,2.000000,4.000000,0.000000,33.333332,,,,,,,,,,,,,,,,,,,,,,,,,,,,,,,,
1698692247.781343,1698692247.781627,34.000000,0.000000,4234.358887,4196.922852,4177.436035,4178.461426,4217.948730,0.000000,1.000000,21.000000,,,,0.000000,2.000000,2.000000,2.000000,4.000000,0.000000,33.333332,,,,,,,,,,,,,,,,,,,,,,,,,,,,,,,,
1698692247.789223,1698692247.789608,35.000000,0.000000,4236.410156,4192.820313,4183.077148,4180.512695,4230.256348,0.000000,1.000000,21.000000,,,,0.000000,2.000000,2.000000,2.000000,4.000000,0.000000,33.333332,,,,,,,,,,,,,,,,,,,,,,,,,,,,,,,,
1698692247.797104,1698692247.797388,36.000000,0.000000,4216.922852,4157.948730,4156.410156,4157.948730,4233.846191,0.000000,1.000000,21.000000,,,,0.000000,2.000000,2.000000,2.000000,4.000000,0.000000,33.333332,,,,,,,,,,,,,,,,,,,,,,,,,,,,,,,,
1698692247.804984,1698692247.805368,37.000000,0.000000,4212.307617,4160.000000,4135.384766,4144.615234,4226.666504,0.000000,1.000000,21.000000,,,,0.000000,2.000000,2.000000,2.000000,4.000000,0.000000,33.333332,,,,,,,,,,,,,,,,,,,,,,,,,,,,,,,,
1698692247.812864,1698692247.813148,38.000000,0.000000,4219.487305,4182.563965,4141.025879,4155.897461,4231.282227,0.000000,1.000000,21.000000,,,,0.000000,2.000000,2.000000,2.000000,4.000000,0.000000,33.333332,,,,,,,,,,,,,,,,,,,,,,,,,,,,,,,,
1698692247.820744,1698692247.821128,39.000000,0.000000,4229.743652,4194.871582,4165.641113,4179.487305,4231.794922,0.000000,1.000000,21.000000,,,,0.000000,2.000000,2.000000,2.000000,4.000000,0.000000,33.333332,,,,,,,,,,,,,,,,,,,,,,,,,,,,,,,,
1698692247.828625,1698692247.828909,40.000000,0.000000,4244.102539,4198.974121,4192.820313,4200.000000,4217.436035,0.000000,1.000000,21.000000,,,,0.000000,2.000000,2.000000,2.000000,4.000000,0.000000,33.333332,,,,,,,,,,,,,,,,,,,,,,,,,,,,,,,,
1698692247.836505,1698692247.836689,41.000000,0.000000,4233.333496,4180.512695,4188.717773,4192.307617,4218.461426,0.000000,1.000000,21.000000,,,,0.000000,2.000000,2.000000,2.000000,4.000000,0.000000,33.333332,,,,,,,,,,,,,,,,,,,,,,,,,,,,,,,,
1698692247.844385,1698692247.844469,42.000000,0.000000,4234.358887,4184.615234,4184.615234,4196.410156,4233.333496,0.000000,1.000000,21.000000,,,,0.000000,2.000000,2.000000,2.000000,4.000000,0.000000,33.333332,,,,,,,,,,,,,,,,,,,,,,,,,,,,,,,,
1698692247.852265,1698692247.852250,43.000000,0.000000,4231.282227,4192.820313,4169.743652,4192.820313,4236.410156,0.000000,1.000000,21.000000,,,,0.000000,2.000000,2.000000,2.000000,4.000000,0.000000,33.333332,,,,,,,,,,,,,,,,,,,,,,,,,,,,,,,,
1698692247.860145,1698692247.860030,44.000000,0.000000,4214.358887,4174.358887,4147.692383,4170.769043,4231.282227,0.000000,1.000000,21.000000,,,,0.000000,2.000000,2.000000,2.000000,4.000000,0.000000,33.333332,,,,,,,,,,,,,,,,,,,,,,,,,,,,,,,,
1698692247.868026,1698692247.867810,45.000000,0.000000,4225.641113,4174.358887,4162.051270,4180.512695,4233.333496,0.000000,1.000000,21.000000,,,,0.000000,2.000000,2.000000,2.000000,4.000000,0.000000,33.333332,,,,,,,,16.255623,2.746927,1.665939,0.936307,0.776288,9.946518,4.370625,4.131623,1.168704,0.987526,9.820848,4.228578,1.413035,1.596285,0.822149,10.495151,5.303079,2.498230,1.135952,0.880081,0.222664,0.284987,0.144721,0.071823,0.072868
1698692247.875906,1698692247.875591,46.000000,0.000000,4234.871582,4184.615234,4178.974121,4192.820313,4234.358887,0.000000,1.000000,21.000000,,,,0.000000,2.000000,2.000000,2.000000,4.000000,0.000000,33.333332,,,,,,,,,,,,,,,,,,,,,,,,,,,,,,,,
1698692247.883786,1698692247.883371,47.000000,0.000000,4246.666504,4203.077148,4187.692383,4201.025879,4225.641113,0.000000,1.000000,21.000000,,,,0.000000,2.000000,2.000000,2.000000,4.000000,0.000000,33.333332,,,,,,,,,,,,,,,,,,,,,,,,,,,,,,,,
1698692247.891667,1698692247.891151,48.000000,0.000000,4245.128418,4205.128418,4174.871582,4190.256348,4215.384766,0.000000,1.000000,21.000000,,,,0.000000,2.000000,2.000000,2.000000,4.000000,0.000000,33.333332,,,,,,,,,,,,,,,,,,,,,,,,,,,,,,,,
1698692247.899547,1698692247.899132,49.000000,0.000000,4231.794922,4184.615234,4162.051270,4172.820313,4217.948730,0.000000,1.000000,21.000000,,,,0.000000,2.000000,2.000000,2.000000,4.000000,0.000000,33.333332,,,,,,,,,,,,,,,,,,,,,,,,,,,,,,,,
1698692247.907427,1698692247.907112,50.000000,0.000000,4243.077148,4182.563965,4174.871582,4186.153809,4230.769043,0.000000,1.000000,21.000000,,,,0.000000,2.000000,2.000000,2.000000,4.000000,0.000000,33.333332,,,,,,,,,,,,,,,,,,,,,,,,,,,,,,,,
1698692247.915307,1698692247.915092,51.000000,0.000000,4234.871582,4170.256348,4166.666504,4176.922852,4233.846191,0.000000,1.000000,21.000000,,,,0.000000,2.000000,2.000000,2.000000,4.000000,0.000000,33.333332,,,,,,,,,,,,,,,,,,,,,,,,,,,,,,,,
1698692247.923188,1698692247.923072,52.000000,0.000000,4227.179688,4162.051270,4159.487305,4165.641113,4229.230957,0.000000,1.000000,21.000000,,,,0.000000,2.000000,2.000000,2.000000,4.000000,0.000000,33.333332,,,,,,,,,,,,,,,,,,,,,,,,,,,,,,,,
1698692247.931068,1698692247.931052,53.000000,0.000000,4232.820313,4160.000000,4165.128418,4175.384766,4233.333496,0.000000,1.000000,21.000000,,,,0.000000,2.000000,2.000000,2.000000,4.000000,0.000000,33.333332,,,,,,,,,,,,,,,,,,,,,,,,,,,,,,,,
1698692247.938948,1698692247.939033,54.000000,0.000000,4227.179688,4160.000000,4171.794922,4180.512695,4234.871582,0.000000,1.000000,21.000000,,,,0.000000,2.000000,2.000000,2.000000,4.000000,0.000000,33.333332,,,,,,,,,,,,,,,,,,,,,,,,,,,,,,,,
1698692247.946828,1698692247.946813,55.000000,0.000000,4222.563965,4174.358887,4185.128418,4186.666504,4221.025879,0.000000,1.000000,21.000000,,,,0.000000,2.000000,2.000000,2.000000,4.000000,0.000000,33.333332,,,,,,,,,,,,,,,,,,,,,,,,,,,,,,,,
1698692247.954708,1698692247.954593,56.000000,0.000000,4205.128418,4162.051270,4171.794922,4165.128418,4215.384766,0.000000,1.000000,21.000000,,,,0.000000,2.000000,2.000000,2.000000,4.000000,0.000000,33.333332,,,,,,,,,,,,,,,,,,,,,,,,,,,,,,,,
1698692247.962589,1698692247.962574,57.000000,0.000000,4201.025879,4160.000000,4153.846191,4141.538574,4229.230957,0.000000,1.000000,21.000000,,,,0.000000,2.000000,2.000000,2.000000,4.000000,0.000000,33.333332,,,,,,,,,,,,,,,,,,,,,,,,,,,,,,,,
1698692247.970469,1698692247.970554,58.000000,0.000000,4204.615234,4166.153809,4138.461426,4131.794922,4234.358887,0.000000,1.000000,21.000000,,,,0.000000,2.000000,2.000000,2.000000,4.000000,0.000000,33.333332,,,,,,,,,,,,,,,,,,,,,,,,,,,,,,,,
1698692247.978349,1698692247.978534,59.000000,0.000000,4200.512695,4151.794922,4131.794922,4128.717773,4230.769043,0.000000,1.000000,21.000000,,,,0.000000,2.000000,2.000000,2.000000,4.000000,0.000000,33.333332,,,,,,,,,,,,,,,,,,,,,,,,,,,,,,,,
1698692247.986230,1698692247.986514,60.000000,0.000000,4206.153809,4149.743652,4155.897461,4156.410156,4231.794922,0.000000,1.000000,21.000000,,,,0.000000,2.000000,2.000000,2.000000,4.000000,0.000000,33.333332,,,,,,,,,,,,,,,,,,,,,,,,,,,,,,,,
1698692247.994110,1698692247.994494,61.000000,0.000000,4204.102539,4137.436035,4164.615234,4178.974121,4224.615234,0.000000,1.000000,21.000000,,,,0.000000,2.000000,2.000000,2.000000,4.000000,0.000000,33.333332,,,,,,,,13.184117,2.027462,1.728944,0.806744,0.659697,6.498780,3.300394,3.123952,0.899307,0.904528,5.387857,3.322107,0.940492,1.284580,0.726172,5.151006,4.719427,2.186959,1.152717,0.831631,0.185542,0.282125,0.179303,0.078394,0.076930
1698692248.001990,1698692248.002275,62.000000,0.000000,4225.128418,4137.436035,4170.769043,4194.358887,4217.436035,0.000000,1.000000,21.000000,,,,0.000000,2.000000,2.000000,2.000000,4.000000,0.000000,33.333332,,,,,,,,,,,,,,,,,,,,,,,,,,,,,,,,
1698692248.009870,1698692248.010255,63.000000,0.000000,4249.230957,4147.692383,4180.000000,4201.025879,4219.487305,0.000000,1.000000,21.000000,,,,0.000000,2.000000,2.000000,2.000000,4.000000,0.000000,33.333332,,,,,,,,,,,,,,,,,,,,,,,,,,,,,,,,
1698692248.017751,1698692248.018035,64.000000,0.000000,4240.512695,4145.641113,4173.333496,4186.153809,4217.436035,450.000000,1.000000,21.000000,,,,0.000000,2.000000,2.000000,2.000000,4.000000,0.000000,33.333332,,,,,,,,,,,,,,,,,,,,,,,,,,,,,,,,
1698692248.025631,1698692248.026016,65.000000,0.000000,4242.051270,4160.000000,4176.410156,4175.897461,4223.077148,450.000000,1.000000,21.000000,,,,0.000000,2.000000,2.000000,2.000000,4.000000,0.000000,33.333332,,,,,,,,,,,,,,,,,,,,,,,,,,,,,,,,
1698692248.033511,1698692248.033796,66.000000,0.000000,4229.743652,4160.000000,4164.615234,4145.128418,4234.358887,1023.000000,1.000000,21.000000,,,,0.000000,4.000000,2.000000,2.000000,4.000000,0.000000,33.333332,,,,,,,,,,,,,,,,,,,,,,,,,,,,,,,,
1698692248.041391,1698692248.041776,67.000000,0.000000,4204.615234,4149.743652,4141.538574,4111.282227,4229.230957,450.000000,1.000000,21.000000,,,,0.000000,4.000000,2.000000,2.000000,4.000000,0.000000,33.333332,,,,,,,,,,,,,,,,,,,,,,,,,,,,,,,,
1698692248.049271,1698692248.049556,68.000000,0.000000,4189.230957,4141.538574,4122.563965,4089.230713,4221.025879,1023.000000,1.000000,21.000000,,,,0.000000,4.000000,4.000000,2.000000,4.000000,0.000000,50.000000,,,,,,,,,,,,,,,,,,,,,,,,,,,,,,,,
1698692248.057152,1698692248.057536,69.000000,0.000000,4163.077148,4116.922852,4103.077148,4071.281982,4224.102539,450.000000,1.000000,21.000000,,,,0.000000,4.000000,4.000000,2.000000,4.000000,0.000000,50.000000,,,,,,,,,,,,,,,,,,,,,,,,,,,,,,,,
1698692248.065032,1698692248.065317,70.000000,0.000000,4158.461426,4102.563965,4116.922852,4096.410156,4220.512695,1023.000000,1.000000,21.000000,,,,0.000000,4.000000,4.000000,4.000000,4.000000,0.000000,66.666664,,,,,,,,,,,,,,,,,,,,,,,,,,,,,,,,
1698692248.072912,1698692248.073297,71.000000,0.000000,4165.641113,4090.256348,4139.487305,4130.769043,4216.410156,450.000000,1.000000,21.000000,,,,0.000000,4.000000,4.000000,4.000000,4.000000,0.000000,66.666664,,,,,,,,,,,,,,,,,,,,,,,,,,,,,,,,
1698692248.080793,1698692248.081077,72.000000,0.000000,4166.153809,4086.153809,4149.743652,4145.128418,4225.641113,450.000000,1.000000,21.000000,,,,0.000000,4.000000,4.000000,4.000000,4.000000,0.000000,66.666664,,,,,,,,,,,,,,,,,,,,,,,,,,,,,,,,
1698692248.088673,1698692248.089057,73.000000,0.000000,4170.769043,4102.563965,4144.102539,4149.230957,4234.358887,1023.000000,1.000000,21.000000,,,,0.000000,4.000000,4.000000,4.000000,4.000000,0.000000,66.666664,,,,,,,,,,,,,,,,,,,,,,,,,,,,,,,,
1698692248.096553,1698692248.096838,74.000000,0.000000,4168.717773,4110.769043,4121.025879,4131.282227,4232.820313,450.000000,1.000000,21.000000,,,,0.000000,4.000000,4.000000,4.000000,4.000000,0.000000,66.666664,,,,,,,,,,,,,,,,,,,,,,,,,,,,,,,,
1698692248.104433,1698692248.104818,75.000000,0.000000,4180.512695,4131.282227,4125.128418,4129.743652,4226.153809,0.000000,1.000000,21.000000,,,,0.000000,4.000000,4.000000,4.000000,4.000000,0.000000,66.666664,,,,,,,,,,,,,,,,,,,,,,,,,,,,,,,,
1698692248.112314,1698692248.112598,76.000000,0.000000,4173.333496,4137.436035,4126.666504,4127.692383,4217.948730,450.000000,1.000000,21.000000,,,,0.000000,4.000000,4.000000,4.000000,4.000000,0.000000,66.666664,,,,,,,,,,,,,,,,,,,,,,,,,,,,,,,,
1698692248.120194,1698692248.120578,77.000000,0.000000,4151.282227,4129.230957,4114.358887,4109.743652,4215.897461,450.000000,1.000000,21.000000,,,,0.000000,4.000000,4.000000,4.000000,4.000000,0.000000,66.666664,1.000000,33.333332,2.000000,2.000000,2.000000,3.000000,0.000000,12.895829,2.369794,2.186561,0.791358,0.604030,5.440413,2.806240,2.745214,0.724045,0.856546,3.910738,3.639970,0.853249,1.143309,0.679492,2.673759,4.848934,2.292742,1.301803,0.783594,0.144765,0.275233,0.217409,0.086026,0.085665
1698692248.128074,1698692248.128358,78.000000,0.000000,4151.794922,4135.384766,4108.205078,4093.846191,4224.102539,450.000000,1.000000,21.000000,,,,0.000000,4.000000,4.000000,4.000000,4.000000,0.000000,66.666664,,,,,,,,,,,,,,,,,,,,,,,,,,,,,,,,
1698692248.135954,1698692248.136139,79.000000,0.000000,4144.615234,4133.333496,4097.948730,4069.743652,4233.333496,0.000000,1.000000,21.000000,,,,0.000000,4.000000,4.000000,4.000000,4.000000,0.000000,66.666664,,,,,,,,,,,,,,,,,,,,,,,,,,,,,,,,
1698692248.143834,1698692248.143919,80.000000,0.000000,4151.282227,4137.436035,4116.922852,4084.102539,4230.256348,450.000000,1.000000,21.000000,,,,0.000000,4.000000,4.000000,4.000000,4.000000,0.000000,66.666664,,,,,,,,,,,,,,,,,,,,,,,,,,,,,,,,
1698692248.151715,1698692248.151699,81.000000,0.000000,4159.487305,4141.538574,4137.436035,4118.974121,4218.461426,450.000000,1.000000,21.000000,,,,0.000000,4.000000,4.000000,4.000000,4.000000,0.000000,66.666664,,,,,,,,,,,,,,,,,,,,,,,,,,,,,,,,
1698692248.159595,1698692248.159480,82.000000,0.000000,4164.102539,4131.282227,4148.205078,4137.436035,4214.871582,450.000000,1.000000,21.000000,,,,0.000000,4.000000,4.000000,4.000000,4.000000,0.000000,66.666664,,,,,,,,,,,,,,,,,,,,,,,,,,,,,,,,
1698692248.167475,1698692248.167260,83.000000,0.000000,4184.102539,4133.333496,4175.897461,4164.102539,4225.641113,0.000000,1.000000,21.000000,,,,0.000000,4.000000,4.000000,4.000000,4.000000,0.000000,66.666664,,,,,,,,,,,,,,,,,,,,,,,,,,,,,,,,
1698692248.175356,1698692248.175040,84.000000,0.000000,4184.102539,4133.333496,4186.153809,4181.025879,4233.846191,450.000000,1.000000,21.000000,,,,0.000000,4.000000,4.000000,4.000000,4.000000,0.000000,66.666664,,,,,,,,,,,,,,,,,,,,,,,,,,,,,,,,
1698692248.183236,1698692248.182821,85.000000,0.000000,4195.897461,4149.743652,4186.666504,4194.358887,4226.666504,450.000000,1.000000,21.000000,,,,0.000000,4.000000,4.000000,4.000000,4.000000,0.000000,66.666664,,,,,,,,,,,,,,,,,,,,,,,,,,,,,,,,
1698692248.191116,1698692248.190601,86.000000,0.000000,4204.102539,4160.000000,4173.333496,4188.205078,4216.410156,450.000000,1.000000,21.000000,,,,0.000000,4.000000,4.000000,4.000000,4.000000,0.000000,66.666664,,,,,,,,,,,,,,,,,,,,,,,,,,,,,,,,
1698692248.198996,1698692248.198381,87.000000,0.000000,4175.897461,4149.743652,4147.179688,4158.461426,4220.000000,0.000000,1.000000,21.000000,,,,0.000000,4.000000,4.000000,4.000000,4.000000,0.000000,66.666664,,,,,,,,,,,,,,,,,,,,,,,,,,,,,,,,
1698692248.206877,1698692248.206162,88.000000,0.000000,4168.205078,4155.897461,4141.538574,4140.512695,4222.563965,450.000000,1.000000,21.000000,,,,0.000000,4.000000,4.000000,4.000000,4.000000,0.000000,66.666664,,,,,,,,,,,,,,,,,,,,,,,,,,,,,,,,
1698692248.214757,1698692248.214142,89.000000,0.000000,4183.589844,4164.102539,4137.436035,4120.000000,4217.948730,450.000000,1.000000,21.000000,,,,0.000000,4.000000,4.000000,4.000000,4.000000,0.000000,66.666664,,,,,,,,,,,,,,,,,,,,,,,,,,,,,,,,
1698692248.222637,1698692248.222122,90.000000,0.000000,4200.000000,4174.358887,4135.384766,4116.922852,4223.077148,450.000000,1.000000,21.000000,,,,0.000000,4.000000,4.000000,4.000000,4.000000,0.000000,66.666664,,,,,,,,,,,,,,,,,,,,,,,,,,,,,,,,
1698692248.230517,1698692248.230102,91.000000,0.000000,4202.051270,4172.307617,4134.871582,4127.179688,4233.846191,0.000000,1.000000,21.000000,,,,0.000000,4.000000,4.000000,4.000000,4.000000,0.000000,66.666664,,,,,,,,,,,,,,,,,,,,,,,,,,,,,,,,
1698692248.238397,1698692248.238082,92.000000,0.000000,4195.384766,4168.205078,4142.563965,4136.922852,4231.794922,450.000000,1.000000,21.000000,,,,0.000000,4.000000,4.000000,4.000000,4.000000,0.000000,66.666664,,,,,,,,,,,,,,,,,,,,,,,,,,,,,,,,
1698692248.246278,1698692248.245863,93.000000,0.000000,4197.436035,4188.717773,4166.153809,4166.153809,4221.538574,450.000000,1.000000,21.000000,,,,0.000000,4.000000,4.000000,4.000000,4.000000,0.000000,66.666664,,,,,,,,13.650270,3.391041,2.818924,0.844804,0.564153,5.357775,2.652931,2.882212,0.641088,0.811605,3.776315,4.555331,1.024392,1.218459,0.655669,2.010782,5.283381,2.697098,1.581755,0.720584,0.103203,0.257291,0.247569,0.103770,0.099787
1698692248.254158,1698692248.253843,94.000000,0.000000,4186.153809,4174.358887,4167.692383,4167.179688,4215.897461,450.000000,1.000000,21.000000,,,,0.000000,4.000000,4.000000,4.000000,4.000000,0.000000,66.666664,,,,,,,,,,,,,,,,,,,,,,,,,,,,,,,,
1698692248.262038,1698692248.261623,95.000000,0.000000,4192.307617,4166.153809,4174.871582,4161.025879,4219.487305,0.000000,1.000000,21.000000,,,,0.000000,4.000000,4.000000,4.000000,4.000000,0.000000,66.666664,,,,,,,,,,,,,,,,,,,,,,,,,,,,,,,,
1698692248.269919,1698692248.269404,96.000000,0.000000,4204.615234,4186.666504,4178.974121,4171.794922,4225.641113,450.000000,1.000000,21.000000,,,,0.000000,4.000000,4.000000,4.000000,4.000000,0.000000,66.666664,,,,,,,,,,,,,,,,,,,,,,,,,,,,,,,,
1698692248.277799,1698692248.277384,97.000000,0.000000,4202.051270,4182.563965,4153.333496,4166.666504,4231.282227,450.000000,1.000000,21.000000,,,,0.000000,4.000000,4.000000,4.000000,4.000000,0.000000,66.666664,,,,,,,,,,,,,,,,,,,,,,,,,,,,,,,,
1698692248.285679,1698692248.285364,98.000000,0.000000,4225.128418,4190.769043,4166.666504,4176.922852,4230.256348,450.000000,1.000000,21.000000,,,,0.000000,4.000000,4.000000,4.000000,4.000000,0.000000,66.666664,,,,,,,,,,,,,,,,,,,,,,,,,,,,,,,,
1698692248.293559,1698692248.293344,99.000000,0.000000,4224.102539,4194.871582,4193.333496,4184.615234,4222.051270,0.000000,1.000000,21.000000,,,,0.000000,4.000000,4.000000,4.000000,4.000000,0.000000,66.666664,,,,,,,,,,,,,,,,,,,,,,,,,,,,,,,,
1698692248.301440,1698692248.301324,100.000000,0.000000,4209.230957,4190.769043,4195.897461,4182.563965,4217.436035,450.000000,1.000000,21.000000,,,,0.000000,4.000000,4.000000,4.000000,4.000000,0.000000,66.666664,,,,,,,,,,,,,,,,,,,,,,,,,,,,,,,,
1698692248.309320,1698692248.309305,101.000000,0.000000,4212.820313,4190.769043,4191.282227,4189.743652,4219.487305,450.000000,1.000000,21.000000,,,,0.000000,4.000000,4.000000,4.000000,4.000000,0.000000,66.666664,,,,,,,,,,,,,,,,,,,,,,,,,,,,,,,,
1698692248.317200,1698692248.317285,102.000000,0.000000,4187.692383,4184.615234,4182.563965,4185.128418,4217.436035,450.000000,1.000000,21.000000,,,,0.000000,4.000000,4.000000,4.000000,4.000000,0.000000,66.666664,,,,,,,,,,,,,,,,,,,,,,,,,,,,,,,,
1698692248.325080,1698692248.325265,103.000000,0.000000,4161.025879,4188.717773,4176.922852,4173.846191,4218.461426,0.000000,1.000000,21.000000,,,,0.000000,4.000000,4.000000,4.000000,4.000000,0.000000,66.666664,,,,,,,,,,,,,,,,,,,,,,,,,,,,,,,,
1698692248.332960,1698692248.333046,104.000000,0.000000,4161.025879,4186.666504,4159.487305,4158.461426,4229.230957,450.000000,1.000000,21.000000,,,,0.000000,4.000000,4.000000,4.000000,4.000000,0.000000,66.666664,,,,,,,,,,,,,,,,,,,,,,,,,,,,,,,,
1698692248.340841,1698692248.341026,105.000000,0.000000,4184.102539,4196.922852,4155.897461,4170.256348,4229.743652,450.000000,1.000000,21.000000,,,,0.000000,4.000000,4.000000,4.000000,4.000000,0.000000,66.666664,,,,,,,,,,,,,,,,,,,,,,,,,,,,,,,,
1698692248.348721,1698692248.348806,106.000000,0.000000,4198.461426,4213.333496,4158.461426,4185.641113,4217.948730,450.000000,1.000000,21.000000,,,,0.000000,4.000000,4.000000,4.000000,4.000000,0.000000,66.666664,,,,,,,,,,,,,,,,,,,,,,,,,,,,,,,,
1698692248.356601,1698692248.356786,107.000000,0.000000,4176.410156,4192.820313,4138.461426,4158.461426,4217.436035,0.000000,1.000000,21.000000,,,,0.000000,4.000000,4.000000,4.000000,4.000000,0.000000,66.666664,,,,,,,,,,,,,,,,,,,,,,,,,,,,,,,,
1698692248.364482,1698692248.364566,108.000000,0.000000,4168.205078,4178.461426,4142.563965,4148.717773,4221.025879,450.000000,1.000000,21.000000,,,,0.000000,4.000000,4.000000,4.000000,4.000000,0.000000,66.666664,,,,,,,,,,,,,,,,,,,,,,,,,,,,,,,,
1698692248.372362,1698692248.372546,109.000000,0.000000,4162.051270,4166.153809,4140.512695,4147.179688,4217.948730,450.000000,1.000000,21.000000,,,,0.000000,4.000000,4.000000,4.000000,4.000000,0.000000,66.666664,,,,,,,,14.343400,4.674223,3.413064,0.919644,0.512910,5.531363,2.646396,3.357161,0.633927,0.751880,4.013141,5.417511,1.371486,1.511462,0.635364,2.244155,5.852804,3.444441,1.968963,0.645852,0.068259,0.229094,0.262884,0.147460,0.119411
1698692248.380242,1698692248.380327,110.000000,0.000000,4156.922852,4151.794922,4125.128418,4138.461426,4217.948730,450.000000,1.000000,21.000000,,,,0.000000,4.000000,4.000000,4.000000,4.000000,0.000000,66.666664,,,,,,,,,,,,,,,,,,,,,,,,,,,,,,,,
1698692248.388122,1698692248.388307,111.000000,0.000000,4170.256348,4155.897461,4141.025879,4156.410156,4221.025879,0.000000,1.000000,21.000000,,,,0.000000,4.000000,4.000000,4.000000,4.000000,0.000000,66.666664,,,,,,,,,,,,,,,,,,,,,,,,,,,,,,,,
1698692248.396003,1698692248.396087,112.000000,0.000000,4164.102539,4157.948730,4154.871582,4158.461426,4216.410156,450.000000,1.000000,21.000000,,,,0.000000,4.000000,4.000000,4.000000,4.000000,0.000000,66.666664,,,,,,,,,,,,,,,,,,,,,,,,,,,,,,,,
1698692248.403883,1698692248.404067,113.000000,0.000000,4159.487305,4160.000000,4158.461426,4143.589844,4219.487305,450.000000,1.000000,21.000000,,,,0.000000,4.000000,4.000000,4.000000,4.000000,0.000000,66.666664,,,,,,,,,,,,,,,,,,,,,,,,,,,,,,,,
1698692248.411763,1698692248.411848,114.000000,0.000000,4155.384766,4153.846191,4154.358887,4130.769043,4231.282227,450.000000,1.000000,21.000000,,,,0.000000,4.000000,4.000000,4.000000,4.000000,0.000000,66.666664,,,,,,,,,,,,,,,,,,,,,,,,,,,,,,,,
1698692248.419643,1698692248.419828,115.000000,0.000000,4158.461426,4162.051270,4154.358887,4138.461426,4231.282227,0.000000,1.000000,21.000000,,,,0.000000,4.000000,4.000000,4.000000,4.000000,0.000000,66.666664,,,,,,,,,,,,,,,,,,,,,,,,,,,,,,,,
1698692248.427524,1698692248.427608,116.000000,0.000000,4176.410156,4178.461426,4158.461426,4164.102539,4218.974121,450.000000,1.000000,21.000000,,,,0.000000,4.000000,4.000000,4.000000,4.000000,0.000000,66.666664,,,,,,,,,,,,,,,,,,,,,,,,,,,,,,,,
1698692248.435404,1698692248.435588,117.000000,0.000000,4162.051270,4160.000000,4146.153809,4156.922852,4214.871582,450.000000,1.000000,21.000000,,,,0.000000,4.000000,4.000000,4.000000,4.000000,0.000000,66.666664,,,,,,,,,,,,,,,,,,,,,,,,,,,,,,,,
1698692248.443284,1698692248.443368,118.000000,0.000000,4158.461426,4160.000000,4155.384766,4161.025879,4221.025879,450.000000,1.000000,21.000000,,,,0.000000,4.000000,4.000000,4.000000,4.000000,0.000000,66.666664,,,,,,,,,,,,,,,,,,,,,,,,,,,,,,,,
1698692248.451164,1698692248.451149,119.000000,0.000000,4176.922852,4174.358887,4164.615234,4177.436035,4219.487305,0.000000,1.000000,21.000000,,,,0.000000,4.000000,4.000000,4.000000,4.000000,0.000000,66.666664,,,,,,,,,,,,,,,,,,,,,,,,,,,,,,,,
1698692248.459045,1698692248.458929,120.000000,0.000000,4185.128418,4180.512695,4155.384766,4173.333496,4214.871582,450.000000,1.000000,21.000000,,,,0.000000,4.000000,4.000000,4.000000,4.000000,0.000000,66.666664,,,,,,,,,,,,,,,,,,,,,,,,,,,,,,,,
1698692248.466925,1698692248.466709,121.000000,0.000000,4197.948730,4192.820313,4158.461426,4171.794922,4224.615234,450.000000,1.000000,21.000000,,,,0.000000,4.000000,4.000000,4.000000,4.000000,0.000000,66.666664,,,,,,,,,,,,,,,,,,,,,,,,,,,,,,,,
1698692248.474805,1698692248.474490,122.000000,0.000000,4204.102539,4188.717773,4160.000000,4168.717773,4233.846191,450.000000,1.000000,21.000000,,,,0.000000,4.000000,4.000000,4.000000,4.000000,0.000000,66.666664,,,,,,,,,,,,,,,,,,,,,,,,,,,,,,,,
1698692248.482685,1698692248.482270,123.000000,0.000000,4217.436035,4188.717773,4173.333496,4186.153809,4226.153809,0.000000,1.000000,21.000000,,,,0.000000,4.000000,4.000000,4.000000,4.000000,0.000000,66.666664,,,,,,,,,,,,,,,,,,,,,,,,,,,,,,,,
1698692248.490566,1698692248.490050,124.000000,0.000000,4217.436035,4190.769043,4181.538574,4192.307617,4216.410156,450.000000,1.000000,21.000000,,,,0.000000,4.000000,4.000000,4.000000,4.000000,0.000000,66.666664,,,,,,,,,,,,,,,,,,,,,,,,,,,,,,,,
1698692248.498446,1698692248.497831,125.000000,0.000000,4201.538574,4188.717773,4183.589844,4175.384766,4218.461426,450.000000,1.000000,21.000000,,,,0.000000,4.000000,4.000000,4.000000,4.000000,0.000000,66.666664,,,,,,,,14.545479,5.863830,3.895840,0.998340,0.454148,5.428656,2.714291,4.010866,0.678719,0.681742,4.251338,5.883049,1.968116,1.966449,0.615741,2.997511,6.771692,4.793475,2.423430,0.579772,0.046761,0.194860,0.257952,0.230819,0.143201
1698692248.506326,1698692248.505611,126.000000,0.000000,4210.769043,4205.128418,4205.641113,4181.538574,4220.000000,450.000000,1.000000,21.000000,,,,0.000000,4.000000,4.000000,4.000000,4.000000,0.000000,66.666664,,,,,,,,,,,,,,,,,,,,,,,,,,,,,,,,
1698692248.514206,1698692248.513591,127.000000,0.000000,4202.051270,4194.871582,4197.948730,4182.051270,4217.948730,229.000000,1.000000,21.000000,,,,0.000000,4.000000,4.000000,4.000000,4.000000,0.000000,66.666664,,,,,,,,,,,,,,,,,,,,,,,,,,,,,,,,
1698692248.522087,1698692248.521571,0.000000,0.000000,4190.256348,4180.512695,4181.538574,4175.897461,4218.974121,450.000000,1.000000,21.000000,,,,0.000000,4.000000,4.000000,4.000000,4.000000,0.000000,66.666664,,,,,,,,,,,,,,,,,,,,,,,,,,,,,,,,
1698692248.529967,1698692248.529552,1.000000,0.000000,4201.025879,4180.512695,4177.948730,4174.871582,4219.487305,450.000000,1.000000,21.000000,,,,0.000000,4.000000,4.000000,4.000000,4.000000,0.000000,66.666664,,,,,,,,,,,,,,,,,,,,,,,,,,,,,,,,
1698692248.537847,1698692248.537532,2.000000,0.000000,4205.641113,4174.358887,4168.205078,4172.820313,4218.974121,1023.000000,1.000000,21.000000,,,,0.000000,4.000000,4.000000,4.000000,4.000000,0.000000,66.666664,,,,,,,,,,,,,,,,,,,,,,,,,,,,,,,,
1698692248.545727,1698692248.545512,3.000000,0.000000,4205.641113,4180.512695,4166.666504,4177.948730,4219.487305,450.000000,1.000000,21.000000,,,,0.000000,4.000000,4.000000,4.000000,4.000000,0.000000,66.666664,,,,,,,,,,,,,,,,,,,,,,,,,,,,,,,,
1698692248.553608,1698692248.553492,4.000000,0.000000,4187.692383,4168.205078,4151.794922,4164.615234,4218.974121,281.000000,1.000000,21.000000,,,,0.000000,4.000000,2.000000,4.000000,4.000000,0.000000,50.000000,,,,,,,,,,,,,,,,,,,,,,,,,,,,,,,,
1698692248.561488,1698692248.561273,5.000000,0.000000,4181.538574,4157.948730,4145.128418,4159.487305,4218.974121,450.000000,1.000000,21.000000,,,,0.000000,4.000000,2.000000,4.000000,4.000000,0.000000,50.000000,,,,,,,,,,,,,,,,,,,,,,,,,,,,,,,,
1698692248.569368,1698692248.569053,6.000000,0.000000,4189.230957,4168.205078,4155.897461,4166.666504,4218.974121,292.000000,1.000000,21.000000,,,,0.000000,4.000000,2.000000,2.000000,4.000000,0.000000,33.333332,,,,,,,,,,,,,,,,,,,,,,,,,,,,,,,,
1698692248.577248,1698692248.577033,7.000000,0.000000,4178.461426,4166.153809,4153.846191,4153.333496,4218.974121,450.000000,1.000000,21.000000,,,,0.000000,4.000000,2.000000,2.000000,4.000000,0.000000,33.333332,,,,,,,,,,,,,,,,,,,,,,,,,,,,,,,,
1698692248.585129,1698692248.585013,8.000000,0.000000,4183.077148,4168.205078,4154.871582,4161.538574,4218.974121,450.000000,1.000000,21.000000,,,,0.000000,4.000000,2.000000,2.000000,4.000000,0.000000,33.333332,,,,,,,,,,,,,,,,,,,,,,,,,,,,,,,,
1698692248.593009,1698692248.592994,9.000000,0.000000,4183.077148,4168.205078,4147.179688,4170.256348,4218.974121,1023.000000,1.000000,21.000000,,,,0.000000,4.000000,2.000000,2.000000,4.000000,0.000000,33.333332,,,,,,,,,,,,,,,,,,,,,,,,,,,,,,,,
1698692248.600889,1698692248.600974,10.000000,0.000000,4183.077148,4178.461426,4147.692383,4166.153809,4218.974121,450.000000,1.000000,21.000000,,,,0.000000,4.000000,2.000000,2.000000,4.000000,0.000000,33.333332,,,,,,,,,,,,,,,,,,,,,,,,,,,,,,,,
1698692248.608769,1698692248.608954,11.000000,0.000000,4189.743652,4184.615234,4151.282227,4167.179688,4218.974121,0.000000,1.000000,21.000000,,,,0.000000,4.000000,2.000000,2.000000,4.000000,0.000000,33.333332,,,,,,,,,,,,,,,,,,,,,,,,,,,,,,,,
1698692248.616650,1698692248.616735,12.000000,0.000000,4187.692383,4174.358887,4134.871582,4159.487305,4218.974121,450.000000,1.000000,21.000000,,,,0.000000,4.000000,2.000000,2.000000,4.000000,0.000000,33.333332,,,,,,,,,,,,,,,,,,,,,,,,,,,,,,,,
1698692248.624530,1698692248.624715,13.000000,0.000000,4210.256348,4192.820313,4145.128418,4172.820313,4218.974121,450.000000,1.000000,21.000000,,,,0.000000,4.000000,2.000000,2.000000,4.000000,0.000000,33.333332,1.000000,33.333332,2.000000,2.000000,2.000000,4.000000,0.000000,14.519538,6.751871,4.265477,1.079929,0.404404,5.242104,2.839674,4.665850,0.753475,0.609739,4.872694,5.972819,2.903872,2.450118,0.596733,3.927039,8.355707,6.888071,2.852142,0.539158,0.037330,0.160444,0.236000,0.355155,0.168312
1698692248.632410,1698692248.632495,14.000000,0.000000,4221.025879,4201.025879,4156.410156,4175.384766,4218.974121,450.000000,1.000000,21.000000,,,,0.000000,4.000000,2.000000,2.000000,4.000000,0.000000,33.333332,,,,,,,,,,,,,,,,,,,,,,,,,,,,,,,,
1698692248.640290,1698692248.640476,15.000000,0.000000,4216.922852,4194.871582,4160.512695,4167.692383,4218.974121,0.000000,1.000000,21.000000,,,,0.000000,4.000000,2.000000,2.000000,4.000000,0.000000,33.333332,,,,,,,,,,,,,,,,,,,,,,,,,,,,,,,,
1698692248.648171,1698692248.648256,16.000000,0.000000,4230.769043,4211.282227,4171.282227,4184.102539,4218.974121,0.000000,1.000000,21.000000,,,,0.000000,4.000000,2.000000,2.000000,4.000000,0.000000,33.333332,,,,,,,,,,,,,,,,,,,,,,,,,,,,,,,,
1698692248.656051,1698692248.656236,17.000000,0.000000,4224.615234,4205.128418,4167.692383,4187.692383,4219.487305,0.000000,1.000000,21.000000,,,,0.000000,4.000000,2.000000,2.000000,4.000000,0.000000,33.333332,,,,,,,,,,,,,,,,,,,,,,,,,,,,,,,,
1698692248.663931,1698692248.664017,18.000000,0.000000,4214.871582,4190.769043,4177.948730,4185.641113,4218.974121,0.000000,1.000000,21.000000,,,,0.000000,4.000000,2.000000,2.000000,4.000000,0.000000,33.333332,,,,,,,,,,,,,,,,,,,,,,,,,,,,,,,,
1698692248.671811,1698692248.671997,19.000000,0.000000,4207.692383,4184.615234,4180.000000,4182.051270,4218.974121,0.000000,1.000000,21.000000,,,,0.000000,4.000000,2.000000,2.000000,4.000000,0.000000,33.333332,,,,,,,,,,,,,,,,,,,,,,,,,,,,,,,,
1698692248.679692,1698692248.679777,20.000000,0.000000,4207.692383,4198.974121,4174.871582,4185.641113,4220.512695,0.000000,1.000000,21.000000,,,,0.000000,4.000000,2.000000,2.000000,4.000000,0.000000,33.333332,,,,,,,,,,,,,,,,,,,,,,,,,,,,,,,,
1698692248.687572,1698692248.687757,21.000000,0.000000,4197.948730,4198.974121,4153.846191,4172.820313,4220.000000,0.000000,1.000000,21.000000,,,,0.000000,4.000000,2.000000,2.000000,4.000000,0.000000,33.333332,,,,,,,,,,,,,,,,,,,,,,,,,,,,,,,,
1698692248.695452,1698692248.695538,22.000000,0.000000,4130.256348,4141.538574,4080.000000,4097.436035,4219.487305,0.000000,1.000000,21.000000,,,,0.000000,4.000000,2.000000,2.000000,4.000000,0.000000,33.333332,,,,,,,,,,,,,,,,,,,,,,,,,,,,,,,,
1698692248.703333,1698692248.703518,23.000000,0.000000,4121.538574,4141.538574,4072.307617,4088.718018,4220.000000,0.000000,1.000000,21.000000,,,,0.000000,4.000000,2.000000,2.000000,4.000000,0.000000,33.333332,,,,,,,,,,,,,,,,,,,,,,,,,,,,,,,,
1698692248.711213,1698692248.711298,24.000000,0.000000,4202.051270,4213.333496,4163.077148,4174.358887,4221.025879,0.000000,1.000000,21.000000,,,,0.000000,4.000000,2.000000,2.000000,4.000000,0.000000,33.333332,,,,,,,,,,,,,,,,,,,,,,,,,,,,,,,,
1698692248.719093,1698692248.719278,25.000000,0.000000,4251.794922,4256.410156,4234.871582,4231.794922,4219.487305,0.000000,1.000000,21.000000,,,,0.000000,4.000000,2.000000,2.000000,4.000000,0.000000,33.333332,,,,,,,,,,,,,,,,,,,,,,,,,,,,,,,,
1698692248.726973,1698692248.727259,26.000000,0.000000,4244.615234,4250.256348,4237.948730,4233.846191,4215.897461,0.000000,1.000000,21.000000,,,,0.000000,4.000000,2.000000,2.000000,4.000000,0.000000,33.333332,,,,,,,,,,,,,,,,,,,,,,,,,,,,,,,,
1698692248.734853,1698692248.735239,27.000000,0.000000,4232.307617,4227.692383,4216.922852,4217.436035,4220.512695,0.000000,1.000000,21.000000,,,,0.000000,4.000000,2.000000,2.000000,4.000000,0.000000,33.333332,,,,,,,,,,,,,,,,,,,,,,,,,,,,,,,,
1698692248.742734,1698692248.743019,28.000000,0.000000,4259.487305,4235.897461,4227.692383,4224.102539,4230.256348,0.000000,1.000000,21.000000,,,,0.000000,4.000000,2.000000,2.000000,4.000000,0.000000,33.333332,,,,,,,,,,,,,,,,,,,,,,,,,,,,,,,,
1698692248.750614,1698692248.750999,29.000000,0.000000,4272.820313,4240.000000,4224.102539,4224.615234,4226.666504,0.000000,1.000000,21.000000,,,,0.000000,4.000000,2.000000,2.000000,4.000000,0.000000,33.333332,,,,,,,,14.416950,7.207535,4.518850,1.162864,0.377142,5.023068,3.009625,5.119181,0.828741,0.540350,5.638330,5.912973,4.141124,2.801906,0.575366,5.114304,10.588894,9.468597,3.138650,0.525559,0.037263,0.128963,0.209376,0.502206,0.191247
1698692248.758494,1698692248.758780,30.000000,0.000000,4244.615234,4219.487305,4190.256348,4200.000000,4216.922852,0.000000,1.000000,21.000000,,,,0.000000,4.000000,2.000000,2.000000,4.000000,0.000000,33.333332,,,,,,,,,,,,,,,,,,,,,,,,,,,,,,,,
1698692248.766374,1698692248.766760,31.000000,0.000000,4216.410156,4215.384766,4171.794922,4177.948730,4217.436035,0.000000,1.000000,21.000000,,,,0.000000,4.000000,2.000000,2.000000,4.000000,0.000000,33.333332,,,,,,,,,,,,,,,,,,,,,,,,,,,,,,,,
1698692248.774255,1698692248.774540,32.000000,0.000000,4191.794922,4213.333496,4154.358887,4155.384766,4220.512695,0.000000,1.000000,21.000000,,,,0.000000,4.000000,2.000000,2.000000,4.000000,0.000000,33.333332,,,,,,,,,,,,,,,,,,,,,,,,,,,,,,,,
1698692248.782135,1698692248.782520,33.000000,0.000000,4196.410156,4217.436035,4146.153809,4159.487305,4217.436035,0.000000,1.000000,21.000000,,,,0.000000,4.000000,2.000000,2.000000,4.000000,0.000000,33.333332,,,,,,,,,,,,,,,,,,,,,,,,,,,,,,,,
1698692248.790015,1698692248.790500,34.000000,0.000000,4205.128418,4207.179688,4148.205078,4168.205078,4216.922852,0.000000,1.000000,21.000000,,,,0.000000,4.000000,2.000000,2.000000,4.000000,0.000000,33.333332,,,,,,,,,,,,,,,,,,,,,,,,,,,,,,,,
1698692248.797896,1698692248.798281,35.000000,0.000000,4200.512695,4194.871582,4157.948730,4163.589844,4220.000000,0.000000,1.000000,21.000000,,,,0.000000,4.000000,2.000000,2.000000,4.000000,0.000000,33.333332,,,,,,,,,,,,,,,,,,,,,,,,,,,,,,,,
1698692248.805776,1698692248.806061,36.000000,0.000000,4210.769043,4205.128418,4172.820313,4178.461426,4220.512695,0.000000,1.000000,21.000000,,,,0.000000,4.000000,2.000000,2.000000,4.000000,0.000000,33.333332,,,,,,,,,,,,,,,,,,,,,,,,,,,,,,,,
1698692248.813656,1698692248.814041,37.000000,0.000000,4206.153809,4192.820313,4167.179688,4178.974121,4219.487305,0.000000,1.000000,21.000000,,,,0.000000,4.000000,2.000000,2.000000,4.000000,0.000000,33.333332,,,,,,,,,,,,,,,,,,,,,,,,,,,,,,,,
1698692248.821536,1698692248.822022,38.000000,0.000000,4198.461426,4182.563965,4180.000000,4177.948730,4217.948730,0.000000,1.000000,21.000000,,,,0.000000,4.000000,2.000000,2.000000,4.000000,0.000000,33.333332,,,,,,,,,,,,,,,,,,,,,,,,,,,,,,,,
1698692248.829416,1698692248.830002,39.000000,0.000000,4195.384766,4186.666504,4190.256348,4188.717773,4219.487305,0.000000,1.000000,21.000000,,,,0.000000,4.000000,2.000000,2.000000,4.000000,0.000000,33.333332,,,,,,,,,,,,,,,,,,,,,,,,,,,,,,,,
1698692248.837297,1698692248.837982,40.000000,0.000000,4180.000000,4172.307617,4158.461426,4183.077148,4219.487305,0.000000,1.000000,21.000000,,,,0.000000,4.000000,2.000000,2.000000,4.000000,0.000000,33.333332,,,,,,,,,,,,,,,,,,,,,,,,,,,,,,,,
1698692248.845177,1698692248.845963,41.000000,0.000000,4185.128418,4178.461426,4147.692383,4184.102539,4217.948730,0.000000,1.000000,21.000000,,,,0.000000,4.000000,2.000000,2.000000,4.000000,0.000000,33.333332,,,,,,,,,,,,,,,,,,,,,,,,,,,,,,,,
1698692248.853057,1698692248.853943,42.000000,0.000000,4193.333496,4192.820313,4163.589844,4184.102539,4224.615234,0.000000,1.000000,21.000000,,,,0.000000,4.000000,2.000000,2.000000,4.000000,0.000000,33.333332,,,,,,,,,,,,,,,,,,,,,,,,,,,,,,,,
1698692248.860937,1698692248.861923,43.000000,0.000000,4200.000000,4209.230957,4175.897461,4184.615234,4231.794922,0.000000,1.000000,21.000000,,,,0.000000,4.000000,2.000000,2.000000,4.000000,0.000000,33.333332,,,,,,,,,,,,,,,,,,,,,,,,,,,,,,,,
1698692248.868818,1698692248.869903,44.000000,0.000000,4201.025879,4217.436035,4173.333496,4182.051270,4233.333496,0.000000,1.000000,21.000000,,,,0.000000,4.000000,2.000000,2.000000,4.000000,0.000000,33.333332,,,,,,,,,,,,,,,,,,,,,,,,,,,,,,,,
1698692248.876698,1698692248.877683,45.000000,0.000000,4174.358887,4203.077148,4152.307617,4157.436035,4228.205078,0.000000,1.000000,21.000000,,,,0.000000,4.000000,2.000000,2.000000,4.000000,0.000000,33.333332,,,,,,,,14.421973,7.247577,4.641848,1.265740,0.378829,4.998873,3.210184,5.229086,0.885997,0.476351,6.749079,5.946683,5.564250,2.919588,0.552913,6.367721,12.949867,11.935226,3.204142,0.534731,0.042609,0.101873,0.193210,0.636613,0.208057
1698692248.884578,1698692248.885464,46.000000,0.000000,4161.025879,4196.922852,4143.077148,4151.794922,4220.512695,0.000000,1.000000,21.000000,,,,0.000000,4.000000,2.000000,2.000000,4.000000,0.000000,33.333332,,,,,,,,,,,,,,,,,,,,,,,,,,,,,,,,
1698692248.892459,1698692248.893444,47.000000,0.000000,4161.025879,4196.922852,4148.717773,4157.436035,4218.974121,0.000000,1.000000,21.000000,,,,0.000000,4.000000,2.000000,2.000000,4.000000,0.000000,33.333332,,,,,,,,,,,,,,,,,,,,,,,,,,,,,,,,
1698692248.900339,1698692248.901424,48.000000,0.000000,4184.102539,4215.384766,4175.897461,4171.282227,4217.436035,0.000000,1.000000,21.000000,,,,0.000000,4.000000,2.000000,2.000000,4.000000,0.000000,33.333332,,,,,,,,,,,,,,,,,,,,,,,,,,,,,,,,
1698692248.908219,1698692248.909405,49.000000,0.000000,4195.897461,4221.538574,4168.205078,4167.692383,4219.487305,0.000000,1.000000,21.000000,,,,0.000000,4.000000,2.000000,2.000000,4.000000,0.000000,33.333332,,,,,,,,,,,,,,,,,,,,,,,,,,,,,,,,
1698692248.916099,1698692248.917385,50.000000,0.000000,4136.922852,4170.256348,4100.000000,4110.256348,4226.666504,0.000000,1.000000,21.000000,,,,0.000000,4.000000,2.000000,2.000000,4.000000,0.000000,33.333332,,,,,,,,,,,,,,,,,,,,,,,,,,,,,,,,
1698692248.923979,1698692248.925365,51.000000,0.000000,4134.871582,4155.897461,4106.153809,4114.871582,4227.692383,0.000000,1.000000,21.000000,,,,0.000000,4.000000,2.000000,2.000000,4.000000,0.000000,33.333332,,,,,,,,,,,,,,,,,,,,,,,,,,,,,,,,
1698692248.931860,1698692248.933145,52.000000,0.000000,4207.179688,4198.974121,4175.384766,4183.589844,4219.487305,0.000000,1.000000,21.000000,,,,0.000000,4.000000,2.000000,2.000000,4.000000,0.000000,33.333332,,,,,,,,,,,,,,,,,,,,,,,,,,,,,,,,
1698692248.939740,1698692248.941126,53.000000,0.000000,4233.846191,4219.487305,4197.436035,4209.230957,4217.436035,0.000000,1.000000,21.000000,,,,0.000000,4.000000,2.000000,2.000000,4.000000,0.000000,33.333332,,,,,,,,,,,,,,,,,,,,,,,,,,,,,,,,
1698692248.947620,1698692248.948906,54.000000,0.000000,4216.410156,4211.282227,4192.820313,4205.641113,4220.000000,0.000000,1.000000,21.000000,,,,0.000000,4.000000,2.000000,2.000000,4.000000,0.000000,33.333332,,,,,,,,,,,,,,,,,,,,,,,,,,,,,,,,
1698692248.955500,1698692248.956886,55.000000,0.000000,4204.615234,4201.025879,4191.282227,4205.641113,4217.948730,0.000000,1.000000,21.000000,,,,0.000000,4.000000,2.000000,2.000000,4.000000,0.000000,33.333332,,,,,,,,,,,,,,,,,,,,,,,,,,,,,,,,
1698692248.963381,1698692248.964667,56.000000,0.000000,4205.641113,4211.282227,4184.615234,4208.717773,4218.461426,0.000000,1.000000,21.000000,,,,0.000000,4.000000,2.000000,2.000000,4.000000,0.000000,33.333332,,,,,,,,,,,,,,,,,,,,,,,,,,,,,,,,
1698692248.971261,1698692248.972647,57.000000,0.000000,4178.461426,4198.974121,4150.769043,4178.461426,4218.974121,0.000000,1.000000,21.000000,,,,0.000000,4.000000,2.000000,2.000000,4.000000,0.000000,33.333332,,,,,,,,,,,,,,,,,,,,,,,,,,,,,,,,
1698692248.979141,1698692248.980427,58.000000,0.000000,4155.384766,4172.307617,4134.358887,4147.179688,4217.948730,0.000000,1.000000,21.000000,,,,0.000000,4.000000,2.000000,2.000000,4.000000,0.000000,33.333332,,,,,,,,,,,,,,,,,,,,,,,,,,,,,,,,
1698692248.987022,1698692248.988407,59.000000,0.000000,4165.128418,4178.461426,4153.846191,4155.897461,4218.974121,0.000000,1.000000,21.000000,,,,0.000000,4.000000,2.000000,2.000000,4.000000,0.000000,33.333332,,,,,,,,,,,,,,,,,,,,,,,,,,,,,,,,
1698692248.994902,1698692248.996188,60.000000,0.000000,4165.641113,4184.615234,4159.487305,4165.128418,4217.948730,0.000000,1.000000,21.000000,,,,0.000000,4.000000,2.000000,2.000000,4.000000,0.000000,33.333332,,,,,,,,,,,,,,,,,,,,,,,,,,,,,,,,
1698692249.002782,1698692249.004168,61.000000,0.000000,4178.974121,4188.717773,4171.794922,4177.948730,4217.948730,0.000000,1.000000,21.000000,,,,0.000000,4.000000,2.000000,2.000000,4.000000,0.000000,33.333332,,,,,,,,14.332925,7.168271,4.661980,1.406212,0.425363,5.374782,3.449650,4.989630,0.941818,0.438026,8.023638,6.319152,7.087961,2.818577,0.547439,7.614233,14.777638,13.667787,3.075089,0.572710,0.050627,0.079106,0.197510,0.719626,0.215035
1698692249.010662,1698692249.011948,62.000000,0.000000,4187.179688,4184.615234,4175.384766,4180.000000,4219.487305,0.000000,1.000000,21.000000,,,,0.000000,4.000000,2.000000,2.000000,4.000000,0.000000,33.333332,,,,,,,,,,,,,,,,,,,,,,,,,,,,,,,,
1698692249.018542,1698692249.019928,63.000000,0.000000,4181.025879,4180.512695,4166.153809,4178.461426,4220.512695,0.000000,1.000000,21.000000,,,,0.000000,4.000000,2.000000,2.000000,4.000000,0.000000,33.333332,,,,,,,,,,,,,,,,,,,,,,,,,,,,,,,,
1698692249.026423,1698692249.027709,64.000000,0.000000,4186.666504,4194.871582,4175.897461,4201.025879,4219.487305,450.000000,1.000000,21.000000,,,,0.000000,4.000000,2.000000,2.000000,4.000000,0.000000,33.333332,,,,,,,,,,,,,,,,,,,,,,,,,,,,,,,,
1698692249.034303,1698692249.035689,65.000000,0.000000,4169.743652,4192.820313,4178.974121,4200.000000,4219.487305,450.000000,1.000000,21.000000,,,,0.000000,4.000000,2.000000,2.000000,4.000000,0.000000,33.333332,,,,,,,,,,,,,,,,,,,,,,,,,,,,,,,,
1698692249.042183,1698692249.043469,66.000000,0.000000,4168.717773,4203.077148,4196.922852,4201.538574,4220.512695,1023.000000,1.000000,21.000000,,,,0.000000,4.000000,2.000000,2.000000,4.000000,0.000000,33.333332,,,,,,,,,,,,,,,,,,,,,,,,,,,,,,,,
1698692249.050063,1698692249.051449,67.000000,0.000000,4181.538574,4198.974121,4202.051270,4208.717773,4220.512695,450.000000,1.000000,21.000000,,,,0.000000,4.000000,2.000000,2.000000,4.000000,0.000000,33.333332,,,,,,,,,,,,,,,,,,,,,,,,,,,,,,,,
1698692249.057944,1698692249.059229,68.000000,0.000000,4173.333496,4176.410156,4187.692383,4190.769043,4220.000000,1023.000000,1.000000,21.000000,,,,0.000000,4.000000,4.000000,2.000000,4.000000,0.000000,50.000000,,,,,,,,,,,,,,,,,,,,,,,,,,,,,,,,
1698692249.065824,1698692249.067210,69.000000,0.000000,4184.615234,4196.922852,4205.128418,4188.717773,4220.512695,450.000000,1.000000,21.000000,,,,0.000000,4.000000,4.000000,2.000000,4.000000,0.000000,50.000000,,,,,,,,,,,,,,,,,,,,,,,,,,,,,,,,
1698692249.073704,1698692249.074990,70.000000,0.000000,4181.538574,4203.077148,4197.436035,4174.871582,4220.000000,1023.000000,1.000000,21.000000,,,,0.000000,4.000000,4.000000,4.000000,4.000000,0.000000,66.666664,,,,,,,,,,,,,,,,,,,,,,,,,,,,,,,,
1698692249.081585,1698692249.082770,71.000000,0.000000,4163.077148,4182.563965,4158.461426,4144.615234,4219.487305,450.000000,1.000000,21.000000,,,,0.000000,4.000000,4.000000,4.000000,4.000000,0.000000,66.666664,,,,,,,,,,,,,,,,,,,,,,,,,,,,,,,,
1698692249.089465,1698692249.090550,72.000000,0.000000,4156.410156,4180.512695,4141.538574,4137.436035,4218.974121,450.000000,1.000000,21.000000,,,,0.000000,4.000000,4.000000,4.000000,4.000000,0.000000,66.666664,,,,,,,,,,,,,,,,,,,,,,,,,,,,,,,,
1698692249.097345,1698692249.098331,73.000000,0.000000,4152.307617,4174.358887,4144.102539,4152.820313,4218.974121,1023.000000,1.000000,21.000000,,,,0.000000,4.000000,4.000000,4.000000,4.000000,0.000000,66.666664,,,,,,,,,,,,,,,,,,,,,,,,,,,,,,,,
1698692249.105225,1698692249.106111,74.000000,0.000000,4151.794922,4168.205078,4145.128418,4164.102539,4218.974121,450.000000,1.000000,21.000000,,,,0.000000,4.000000,4.000000,4.000000,4.000000,0.000000,66.666664,,,,,,,,,,,,,,,,,,,,,,,,,,,,,,,,
1698692249.113105,1698692249.113891,75.000000,0.000000,4155.384766,4170.256348,4149.743652,4157.948730,4218.974121,0.000000,1.000000,21.000000,,,,0.000000,4.000000,4.000000,4.000000,4.000000,0.000000,66.666664,,,,,,,,,,,,,,,,,,,,,,,,,,,,,,,,
1698692249.120986,1698692249.121672,76.000000,0.000000,4196.410156,4203.077148,4189.743652,4193.333496,4218.974121,450.000000,1.000000,21.000000,,,,0.000000,4.000000,4.000000,4.000000,4.000000,0.000000,66.666664,,,,,,,,,,,,,,,,,,,,,,,,,,,,,,,,
1698692249.128866,1698692249.129452,77.000000,0.000000,4232.820313,4233.846191,4216.922852,4231.794922,4218.974121,450.000000,1.000000,21.000000,,,,0.000000,4.000000,4.000000,4.000000,4.000000,0.000000,66.666664,1.000000,33.333332,2.000000,2.000000,2.000000,4.000000,0.000000,14.321268,7.446076,4.692812,1.581299,0.547297,6.320994,3.735469,4.548334,1.029487,0.461157,9.429211,7.267933,8.713975,2.631526,0.600229,8.687539,15.702561,14.305177,2.863618,0.660533,0.060209,0.061811,0.222970,0.727016,0.210066
1698692249.136746,1698692249.137232,78.000000,0.000000,4223.077148,4231.794922,4211.282227,4210.256348,4218.461426,450.000000,1.000000,21.000000,,,,0.000000,4.000000,4.000000,4.000000,4.000000,0.000000,66.666664,,,,,,,,,,,,,,,,,,,,,,,,,,,,,,,,
1698692249.144627,1698692249.145213,79.000000,0.000000,4228.717773,4237.948730,4231.282227,4207.692383,4218.461426,0.000000,1.000000,21.000000,,,,0.000000,4.000000,4.000000,4.000000,4.000000,0.000000,66.666664,,,,,,,,,,,,,,,,,,,,,,,,,,,,,,,,
1698692249.152507,1698692249.153193,80.000000,0.000000,4238.974121,4242.051270,4246.666504,4230.769043,4220.000000,450.000000,1.000000,21.000000,,,,0.000000,4.000000,4.000000,4.000000,4.000000,0.000000,66.666664,,,,,,,,,,,,,,,,,,,,,,,,,,,,,,,,
1698692249.160387,1698692249.161173,81.000000,0.000000,4236.410156,4250.256348,4244.102539,4233.846191,4218.974121,450.000000,1.000000,21.000000,,,,0.000000,4.000000,4.000000,4.000000,4.000000,0.000000,66.666664,,,,,,,,,,,,,,,,,,,,,,,,,,,,,,,,
1698692249.168267,1698692249.169153,82.000000,0.000000,4233.846191,4248.205078,4238.974121,4226.666504,4217.948730,450.000000,1.000000,21.000000,,,,0.000000,4.000000,4.000000,4.000000,4.000000,0.000000,66.666664,,,,,,,,,,,,,,,,,,,,,,,,,,,,,,,,
1698692249.176148,1698692249.176934,83.000000,0.000000,4233.846191,4242.051270,4234.358887,4233.333496,4228.205078,0.000000,1.000000,21.000000,,,,0.000000,4.000000,4.000000,4.000000,4.000000,0.000000,66.666664,,,,,,,,,,,,,,,,,,,,,,,,,,,,,,,,
1698692249.184028,1698692249.184914,84.000000,0.000000,4259.487305,4270.769043,4255.897461,4269.230957,4234.871582,450.000000,1.000000,21.000000,,,,0.000000,4.000000,4.000000,4.000000,4.000000,0.000000,66.666664,,,,,,,,,,,,,,,,,,,,,,,,,,,,,,,,
1698692249.191908,1698692249.192694,85.000000,0.000000,4267.692383,4276.922852,4255.897461,4274.871582,4224.615234,450.000000,1.000000,21.000000,,,,0.000000,4.000000,4.000000,4.000000,4.000000,0.000000,66.666664,,,,,,,,,,,,,,,,,,,,,,,,,,,,,,,,
1698692249.199788,1698692249.200474,86.000000,0.000000,4259.487305,4260.512695,4229.743652,4257.436035,4215.384766,450.000000,1.000000,21.000000,,,,0.000000,4.000000,4.000000,4.000000,4.000000,0.000000,66.666664,,,,,,,,,,,,,,,,,,,,,,,,,,,,,,,,
1698692249.207668,1698692249.208455,87.000000,0.000000,4263.589844,4272.820313,4229.230957,4267.692383,4218.974121,0.000000,1.000000,21.000000,,,,0.000000,4.000000,4.000000,4.000000,4.000000,0.000000,66.666664,,,,,,,,,,,,,,,,,,,,,,,,,,,,,,,,
1698692249.215549,1698692249.216435,88.000000,0.000000,4263.077148,4276.922852,4240.512695,4270.769043,4220.512695,450.000000,1.000000,21.000000,,,,0.000000,4.000000,4.000000,4.000000,4.000000,0.000000,66.666664,,,,,,,,,,,,,,,,,,,,,,,,,,,,,,,,
1698692249.223429,1698692249.224415,89.000000,0.000000,4284.102539,4281.025879,4258.974121,4277.948730,4218.974121,450.000000,1.000000,21.000000,,,,0.000000,4.000000,4.000000,4.000000,4.000000,0.000000,66.666664,,,,,,,,,,,,,,,,,,,,,,,,,,,,,,,,
1698692249.231309,1698692249.232195,90.000000,0.000000,4251.794922,4268.717773,4253.333496,4273.333496,4219.487305,450.000000,1.000000,21.000000,,,,0.000000,4.000000,4.000000,4.000000,4.000000,0.000000,66.666664,,,,,,,,,,,,,,,,,,,,,,,,,,,,,,,,
1698692249.239190,1698692249.240176,91.000000,0.000000,4155.897461,4246.153809,4234.358887,4261.025879,4218.461426,0.000000,1.000000,21.000000,,,,0.000000,4.000000,4.000000,4.000000,4.000000,0.000000,66.666664,,,,,,,,,,,,,,,,,,,,,,,,,,,,,,,,
1698692249.247070,1698692249.247956,92.000000,0.000000,4108.205078,4244.102539,4234.871582,4269.230957,4217.948730,450.000000,1.000000,21.000000,,,,0.000000,4.000000,4.000000,4.000000,4.000000,0.000000,66.666664,,,,,,,,,,,,,,,,,,,,,,,,,,,,,,,,
1698692249.254950,1698692249.255936,93.000000,0.000000,4092.820557,4227.692383,4220.512695,4254.871582,4219.487305,450.000000,1.000000,21.000000,,,,0.000000,4.000000,4.000000,4.000000,4.000000,0.000000,66.666664,,,,,,,,14.098570,8.431165,4.903838,1.775087,0.773939,7.670135,4.054848,4.122780,1.175553,0.576532,10.457342,8.809711,10.481664,2.564471,0.760691,9.297478,15.718517,13.859773,2.727680,0.825306,0.073809,0.051450,0.258882,0.660374,0.193541
1698692249.262830,1698692249.263717,94.000000,0.000000,4085.641113,4213.333496,4216.922852,4247.692383,4219.487305,450.000000,1.000000,21.000000,,,,0.000000,4.000000,4.000000,4.000000,4.000000,0.000000,66.666664,,,,,,,,,,,,,,,,,,,,,,,,,,,,,,,,
1698692249.270711,1698692249.271697,95.000000,0.000000,4089.743652,4211.282227,4227.692383,4261.025879,4218.974121,0.000000,1.000000,21.000000,,,,0.000000,4.000000,4.000000,4.000000,4.000000,0.000000,66.666664,,,,,,,,,,,,,,,,,,,,,,,,,,,,,,,,
1698692249.278591,1698692249.279477,96.000000,0.000000,4097.948730,4223.589844,4231.282227,4261.538574,4219.487305,450.000000,1.000000,21.000000,,,,0.000000,4.000000,4.000000,4.000000,4.000000,0.000000,66.666664,,,,,,,,,,,,,,,,,,,,,,,,,,,,,,,,
1698692249.286471,1698692249.287457,97.000000,0.000000,4104.615234,4244.102539,4228.205078,4248.205078,4218.974121,450.000000,1.000000,21.000000,,,,0.000000,4.000000,4.000000,4.000000,4.000000,0.000000,66.666664,,,,,,,,,,,,,,,,,,,,,,,,,,,,,,,,
1698692249.294351,1698692249.295238,98.000000,0.000000,4094.871826,4237.948730,4210.256348,4215.897461,4218.974121,450.000000,1.000000,21.000000,,,,0.000000,4.000000,4.000000,4.000000,4.000000,0.000000,66.666664,,,,,,,,,,,,,,,,,,,,,,,,,,,,,,,,
1698692249.302231,1698692249.303218,99.000000,0.000000,4102.051270,4235.897461,4209.743652,4201.538574,4218.974121,0.000000,1.000000,21.000000,,,,0.000000,4.000000,4.000000,4.000000,4.000000,0.000000,66.666664,,,,,,,,,,,,,,,,,,,,,,,,,,,,,,,,
1698692249.310112,1698692249.310998,100.000000,0.000000,4103.077148,4227.692383,4197.948730,4188.205078,4218.974121,450.000000,1.000000,21.000000,,,,0.000000,4.000000,4.000000,4.000000,4.000000,0.000000,66.666664,,,,,,,,,,,,,,,,,,,,,,,,,,,,,,,,
1698692249.317992,1698692249.318978,101.000000,0.000000,4096.922852,4219.487305,4181.025879,4182.051270,4218.974121,450.000000,1.000000,21.000000,,,,0.000000,4.000000,4.000000,4.000000,4.000000,0.000000,66.666664,,,,,,,,,,,,,,,,,,,,,,,,,,,,,,,,
1698692249.325872,1698692249.326758,102.000000,0.000000,4126.153809,4244.102539,4206.666504,4218.461426,4218.974121,450.000000,1.000000,21.000000,,,,0.000000,4.000000,4.000000,4.000000,4.000000,0.000000,66.666664,,,,,,,,,,,,,,,,,,,,,,,,,,,,,,,,
1698692249.333753,1698692249.334739,103.000000,0.000000,4135.384766,4242.051270,4214.871582,4231.282227,4218.974121,0.000000,1.000000,21.000000,,,,0.000000,4.000000,4.000000,4.000000,4.000000,0.000000,66.666664,,,,,,,,,,,,,,,,,,,,,,,,,,,,,,,,
1698692249.341633,1698692249.342519,104.000000,0.000000,4124.102539,4229.743652,4203.077148,4227.179688,4218.974121,450.000000,1.000000,21.000000,,,,0.000000,4.000000,4.000000,4.000000,4.000000,0.000000,66.666664,,,,,,,,,,,,,,,,,,,,,,,,,,,,,,,,
1698692249.349513,1698692249.350499,105.000000,0.000000,4116.922852,4221.538574,4197.948730,4232.307617,4218.974121,450.000000,1.000000,21.000000,,,,0.000000,4.000000,4.000000,4.000000,4.000000,0.000000,66.666664,,,,,,,,,,,,,,,,,,,,,,,,,,,,,,,,
1698692249.357393,1698692249.358279,106.000000,0.000000,4103.589844,4198.974121,4182.563965,4215.897461,4218.974121,450.000000,1.000000,21.000000,,,,0.000000,4.000000,4.000000,4.000000,4.000000,0.000000,66.666664,,,,,,,,,,,,,,,,,,,,,,,,,,,,,,,,
1698692249.365274,1698692249.366259,107.000000,0.000000,4105.641113,4207.179688,4176.922852,4206.666504,4218.974121,0.000000,1.000000,21.000000,,,,0.000000,4.000000,4.000000,4.000000,4.000000,0.000000,66.666664,,,,,,,,,,,,,,,,,,,,,,,,,,,,,,,,
1698692249.373154,1698692249.374040,108.000000,0.000000,4104.102539,4215.384766,4172.820313,4200.512695,4218.974121,450.000000,1.000000,21.000000,,,,0.000000,4.000000,4.000000,4.000000,4.000000,0.000000,66.666664,,,,,,,,,,,,,,,,,,,,,,,,,,,,,,,,
1698692249.381034,1698692249.382020,109.000000,0.000000,4114.871582,4219.487305,4180.512695,4200.000000,4218.974121,450.000000,1.000000,21.000000,,,,0.000000,4.000000,4.000000,4.000000,4.000000,0.000000,66.666664,,,,,,,,14.049044,10.020249,5.473212,1.977370,1.103287,9.304985,4.348972,3.907430,1.391400,0.783217,11.195591,10.814829,12.351574,2.767323,1.042667,9.648837,15.291970,12.740285,2.779194,1.069870,0.091576,0.048760,0.288533,0.544995,0.168390
1698692249.388914,1698692249.389800,110.000000,0.000000,4129.230957,4219.487305,4174.358887,4201.538574,4218.974121,450.000000,1.000000,21.000000,,,,0.000000,4.000000,4.000000,4.000000,4.000000,0.000000,66.666664,,,,,,,,,,,,,,,,,,,,,,,,,,,,,,,,
1698692249.396795,1698692249.397580,111.000000,0.000000,4123.077148,4211.282227,4154.871582,4200.000000,4218.974121,0.000000,1.000000,21.000000,,,,0.000000,4.000000,4.000000,4.000000,4.000000,0.000000,66.666664,,,,,,,,,,,,,,,,,,,,,,,,,,,,,,,,
1698692249.404675,1698692249.405361,112.000000,0.000000,4135.384766,4223.589844,4165.641113,4216.922852,4218.974121,450.000000,1.000000,21.000000,,,,0.000000,4.000000,4.000000,4.000000,4.000000,0.000000,66.666664,,,,,,,,,,,,,,,,,,,,,,,,,,,,,,,,
1698692249.412555,1698692249.413141,113.000000,0.000000,4138.461426,4217.436035,4166.153809,4212.820313,4218.974121,450.000000,1.000000,21.000000,,,,0.000000,4.000000,4.000000,4.000000,4.000000,0.000000,66.666664,,,,,,,,,,,,,,,,,,,,,,,,,,,,,,,,
1698692249.420435,1698692249.420921,114.000000,0.000000,4134.358887,4213.333496,4167.179688,4209.743652,4218.974121,450.000000,1.000000,21.000000,,,,0.000000,4.000000,4.000000,4.000000,4.000000,0.000000,66.666664,,,,,,,,,,,,,,,,,,,,,,,,,,,,,,,,
1698692249.428316,1698692249.428702,115.000000,0.000000,4144.615234,4219.487305,4177.948730,4231.282227,4218.974121,0.000000,1.000000,21.000000,,,,0.000000,4.000000,4.000000,4.000000,4.000000,0.000000,66.666664,,,,,,,,,,,,,,,,,,,,,,,,,,,,,,,,
1698692249.436196,1698692249.436482,116.000000,0.000000,4139.487305,4207.179688,4166.666504,4231.282227,4218.974121,450.000000,1.000000,21.000000,,,,0.000000,4.000000,4.000000,4.000000,4.000000,0.000000,66.666664,,,,,,,,,,,,,,,,,,,,,,,,,,,,,,,,
1698692249.444076,1698692249.444462,117.000000,0.000000,4137.948730,4211.282227,4162.051270,4227.179688,4218.974121,450.000000,1.000000,21.000000,,,,0.000000,4.000000,4.000000,4.000000,4.000000,0.000000,66.666664,,,,,,,,,,,,,,,,,,,,,,,,,,,,,,,,
1698692249.451956,1698692249.452443,118.000000,0.000000,4134.358887,4213.333496,4156.922852,4213.333496,4218.974121,450.000000,1.000000,21.000000,,,,0.000000,4.000000,4.000000,4.000000,4.000000,0.000000,66.666664,,,,,,,,,,,,,,,,,,,,,,,,,,,,,,,,
1698692249.459837,1698692249.460423,119.000000,0.000000,4143.589844,4215.384766,4167.179688,4211.282227,4218.974121,0.000000,1.000000,21.000000,,,,0.000000,4.000000,4.000000,4.000000,4.000000,0.000000,66.666664,,,,,,,,,,,,,,,,,,,,,,,,,,,,,,,,
1698692249.467717,1698692249.468403,120.000000,0.000000,4158.974121,4231.794922,4188.205078,4236.410156,4218.974121,450.000000,1.000000,21.000000,,,,0.000000,4.000000,4.000000,4.000000,4.000000,0.000000,66.666664,,,,,,,,,,,,,,,,,,,,,,,,,,,,,,,,
1698692249.475597,1698692249.476383,121.000000,0.000000,4145.641113,4229.743652,4176.922852,4230.769043,4218.974121,450.000000,1.000000,21.000000,,,,0.000000,4.000000,4.000000,4.000000,4.000000,0.000000,66.666664,,,,,,,,,,,,,,,,,,,,,,,,,,,,,,,,
1698692249.483477,1698692249.484364,122.000000,0.000000,4147.692383,4231.794922,4174.871582,4219.487305,4218.974121,450.000000,1.000000,21.000000,,,,0.000000,4.000000,4.000000,4.000000,4.000000,0.000000,66.666664,,,,,,,,,,,,,,,,,,,,,,,,,,,,,,,,
1698692249.491358,1698692249.492144,123.000000,0.000000,4146.666504,4225.641113,4181.538574,4218.461426,4218.974121,0.000000,1.000000,21.000000,,,,0.000000,4.000000,4.000000,4.000000,4.000000,0.000000,66.666664,,,,,,,,,,,,,,,,,,,,,,,,,,,,,,,,
1698692249.499238,1698692249.499924,124.000000,0.000000,4145.641113,4219.487305,4175.897461,4220.512695,4218.974121,450.000000,1.000000,21.000000,,,,0.000000,4.000000,4.000000,4.000000,4.000000,0.000000,66.666664,,,,,,,,,,,,,,,,,,,,,,,,,,,,,,,,
1698692249.507118,1698692249.507905,125.000000,0.000000,4171.282227,4229.743652,4176.922852,4223.077148,4218.974121,450.000000,1.000000,21.000000,,,,0.000000,4.000000,4.000000,4.000000,4.000000,0.000000,66.666664,,,,,,,,14.783250,11.941664,6.488099,2.174955,1.487351,10.914074,4.586620,3.969182,1.643930,1.036865,11.660936,13.034945,14.064316,3.228070,1.403386,9.988387,15.093599,11.515435,3.007498,1.359241,0.113562,0.052796,0.297413,0.417451,0.139232
1698692249.514998,1698692249.515885,126.000000,0.000000,4185.641113,4229.743652,4181.025879,4215.384766,4218.974121,450.000000,1.000000,21.000000,,,,0.000000,4.000000,4.000000,4.000000,4.000000,0.000000,66.666664,,,,,,,,,,,,,,,,,,,,,,,,,,,,,,,,
1698692249.522879,1698692249.523865,127.000000,0.000000,4199.487305,4242.051270,4191.794922,4227.179688,4218.974121,229.000000,1.000000,21.000000,,,,0.000000,4.000000,4.000000,4.000000,4.000000,0.000000,66.666664,,,,,,,,,,,,,,,,,,,,,,,,,,,,,,,,
1698692249.530759,1698692249.531845,0.000000,0.000000,4198.974121,4244.102539,4182.051270,4230.769043,4218.974121,450.000000,1.000000,21.000000,,,,0.000000,4.000000,4.000000,4.000000,4.000000,0.000000,66.666664,,,,,,,,,,,,,,,,,,,,,,,,,,,,,,,,
1698692249.538639,1698692249.539825,1.000000,0.000000,4188.717773,4229.743652,4175.384766,4225.128418,4218.974121,450.000000,1.000000,21.000000,,,,0.000000,4.000000,4.000000,4.000000,4.000000,0.000000,66.666664,,,,,,,,,,,,,,,,,,,,,,,,,,,,,,,,
1698692249.546519,1698692249.547606,2.000000,0.000000,4195.384766,4235.897461,4186.153809,4228.205078,4218.974121,1023.000000,1.000000,21.000000,,,,0.000000,4.000000,4.000000,4.000000,4.000000,0.000000,66.666664,,,,,,,,,,,,,,,,,,,,,,,,,,,,,,,,
1698692249.554400,1698692249.555586,3.000000,0.000000,4178.974121,4229.743652,4165.641113,4203.589844,4218.974121,450.000000,1.000000,21.000000,,,,0.000000,4.000000,4.000000,4.000000,4.000000,0.000000,66.666664,,,,,,,,,,,,,,,,,,,,,,,,,,,,,,,,
1698692249.562280,1698692249.563366,4.000000,0.000000,4166.666504,4225.641113,4155.897461,4196.922852,4218.974121,1023.000000,1.000000,21.000000,,,,0.000000,4.000000,4.000000,4.000000,4.000000,0.000000,66.666664,,,,,,,,,,,,,,,,,,,,,,,,,,,,,,,,
1698692249.570160,1698692249.571347,5.000000,0.000000,4169.743652,4217.436035,4163.589844,4205.128418,4218.974121,450.000000,1.000000,21.000000,,,,0.000000,4.000000,4.000000,4.000000,4.000000,0.000000,66.666664,,,,,,,,,,,,,,,,,,,,,,,,,,,,,,,,
1698692249.578040,1698692249.579127,6.000000,0.000000,4164.102539,4205.128418,4158.974121,4187.692383,4218.974121,1023.000000,1.000000,21.000000,,,,0.000000,4.000000,4.000000,4.000000,4.000000,0.000000,66.666664,,,,,,,,,,,,,,,,,,,,,,,,,,,,,,,,
1698692249.585921,1698692249.587107,7.000000,0.000000,4165.641113,4215.384766,4164.102539,4180.512695,4218.974121,450.000000,1.000000,21.000000,,,,0.000000,4.000000,4.000000,4.000000,4.000000,0.000000,66.666664,,,,,,,,,,,,,,,,,,,,,,,,,,,,,,,,
1698692249.593801,1698692249.594888,8.000000,0.000000,4168.205078,4213.333496,4171.282227,4181.538574,4218.974121,450.000000,1.000000,21.000000,,,,0.000000,4.000000,4.000000,4.000000,4.000000,0.000000,66.666664,,,,,,,,,,,,,,,,,,,,,,,,,,,,,,,,
1698692249.601681,1698692249.602868,9.000000,0.000000,4178.974121,4215.384766,4183.589844,4192.307617,4218.974121,312.000000,1.000000,21.000000,,,,0.000000,4.000000,4.000000,4.000000,4.000000,0.000000,66.666664,,,,,,,,,,,,,,,,,,,,,,,,,,,,,,,,
1698692249.609561,1698692249.610648,10.000000,0.000000,4176.410156,4213.333496,4176.410156,4196.410156,4218.974121,450.000000,1.000000,21.000000,,,,0.000000,4.000000,4.000000,4.000000,4.000000,0.000000,66.666664,,,,,,,,,,,,,,,,,,,,,,,,,,,,,,,,
1698692249.617442,1698692249.618628,11.000000,0.000000,4153.846191,4196.922852,4154.358887,4190.256348,4218.974121,0.000000,1.000000,21.000000,,,,0.000000,4.000000,4.000000,4.000000,4.000000,0.000000,66.666664,,,,,,,,,,,,,,,,,,,,,,,,,,,,,,,,
1698692249.625322,1698692249.626409,12.000000,0.000000,4153.333496,4201.025879,4161.538574,4201.025879,4218.974121,450.000000,1.000000,21.000000,,,,0.000000,4.000000,4.000000,4.000000,4.000000,0.000000,66.666664,,,,,,,,,,,,,,,,,,,,,,,,,,,,,,,,
1698692249.633202,1698692249.634389,13.000000,0.000000,4153.333496,4196.922852,4168.205078,4191.282227,4218.974121,450.000000,1.000000,21.000000,,,,0.000000,4.000000,4.000000,4.000000,4.000000,0.000000,66.666664,1.000000,33.333332,2.000000,2.000000,2.000000,4.000000,0.000000,18.090883,13.863708,7.831233,2.363555,1.840568,12.314719,4.751329,4.201509,1.868020,1.263819,11.971575,15.061521,15.144445,3.771320,1.749519,10.785363,15.395906,10.609757,3.283974,1.623025,0.135660,0.060985,0.280277,0.308091,0.110935
1698692249.641082,1698692249.642169,14.000000,0.000000,4169.230957,4209.230957,4182.563965,4189.230957,4218.974121,450.000000,1.000000,21.000000,,,,0.000000,4.000000,4.000000,4.000000,4.000000,0.000000,66.666664,,,,,,,,,,,,,,,,,,,,,,,,,,,,,,,,
1698692249.648963,1698692249.650149,15.000000,0.000000,4192.820313,4237.948730,4199.487305,4213.333496,4218.974121,0.000000,1.000000,21.000000,,,,0.000000,4.000000,4.000000,4.000000,4.000000,0.000000,66.666664,,,,,,,,,,,,,,,,,,,,,,,,,,,,,,,,
1698692249.656843,1698692249.657929,16.000000,0.000000,4189.230957,4248.205078,4202.563965,4221.025879,4218.974121,0.000000,1.000000,21.000000,,,,0.000000,4.000000,4.000000,4.000000,4.000000,0.000000,66.666664,,,,,,,,,,,,,,,,,,,,,,,,,,,,,,,,
1698692249.664723,1698692249.665910,17.000000,0.000000,4193.333496,4254.358887,4218.461426,4229.743652,4218.974121,0.000000,1.000000,21.000000,,,,0.000000,4.000000,4.000000,4.000000,4.000000,0.000000,66.666664,,,,,,,,,,,,,,,,,,,,,,,,,,,,,,,,
1698692249.672603,1698692249.673690,18.000000,0.000000,4186.666504,4246.153809,4220.000000,4224.102539,4218.974121,0.000000,1.000000,21.000000,,,,0.000000,4.000000,4.000000,4.000000,4.000000,0.000000,66.666664,,,,,,,,,,,,,,,,,,,,,,,,,,,,,,,,
1698692249.680484,1698692249.681470,19.000000,0.000000,4169.743652,4229.743652,4207.692383,4211.282227,4218.974121,0.000000,1.000000,21.000000,,,,0.000000,4.000000,4.000000,4.000000,4.000000,0.000000,66.666664,,,,,,,,,,,,,,,,,,,,,,,,,,,,,,,,
1698692249.688364,1698692249.689451,20.000000,0.000000,4161.025879,4217.436035,4195.384766,4207.692383,4218.974121,0.000000,1.000000,21.000000,,,,0.000000,4.000000,4.000000,4.000000,4.000000,0.000000,66.666664,,,,,,,,,,,,,,,,,,,,,,,,,,,,,,,,
1698692249.696244,1698692249.697431,21.000000,0.000000,4160.000000,4211.282227,4186.153809,4205.641113,4218.974121,0.000000,1.000000,21.000000,,,,0.000000,4.000000,4.000000,4.000000,4.000000,0.000000,66.666664,,,,,,,,,,,,,,,,,,,,,,,,,,,,,,,,
1698692249.704124,1698692249.705411,22.000000,0.000000,4181.025879,4225.641113,4196.922852,4215.897461,4218.974121,0.000000,1.000000,21.000000,,,,0.000000,4.000000,4.000000,4.000000,4.000000,0.000000,66.666664,,,,,,,,,,,,,,,,,,,,,,,,,,,,,,,,
1698692249.712005,1698692249.713192,23.000000,0.000000,4176.410156,4217.436035,4187.692383,4207.179688,4218.974121,0.000000,1.000000,21.000000,,,,0.000000,4.000000,4.000000,4.000000,4.000000,0.000000,66.666664,,,,,,,,,,,,,,,,,,,,,,,,,,,,,,,,
1698692249.719885,1698692249.720972,24.000000,0.000000,4168.205078,4209.230957,4184.102539,4202.051270,4218.974121,0.000000,1.000000,21.000000,,,,0.000000,4.000000,4.000000,4.000000,4.000000,0.000000,66.666664,,,,,,,,,,,,,,,,,,,,,,,,,,,,,,,,
1698692249.727765,1698692249.728752,25.000000,0.000000,4178.461426,4229.743652,4207.692383,4223.589844,4218.461426,0.000000,1.000000,21.000000,,,,0.000000,4.000000,4.000000,4.000000,4.000000,0.000000,66.666664,,,,,,,,,,,,,,,,,,,,,,,,,,,,,,,,
1698692249.735645,1698692249.736532,26.000000,0.000000,4168.205078,4225.641113,4210.256348,4226.153809,4219.487305,0.000000,1.000000,21.000000,,,,0.000000,4.000000,4.000000,4.000000,4.000000,0.000000,66.666664,,,,,,,,,,,,,,,,,,,,,,,,,,,,,,,,
1698692249.743526,1698692249.744313,27.000000,0.000000,4175.897461,4223.589844,4203.589844,4221.538574,4220.512695,0.000000,1.000000,21.000000,,,,0.000000,4.000000,4.000000,4.000000,4.000000,0.000000,66.666664,,,,,,,,,,,,,,,,,,,,,,,,,,,,,,,,
1698692249.751406,1698692249.752093,28.000000,0.000000,4195.384766,4219.487305,4190.769043,4202.563965,4216.922852,0.000000,1.000000,21.000000,,,,0.000000,4.000000,4.000000,4.000000,4.000000,0.000000,66.666664,,,,,,,,,,,,,,,,,,,,,,,,,,,,,,,,
1698692249.759286,1698692249.760073,29.000000,0.000000,4206.153809,4213.333496,4186.153809,4182.051270,4221.025879,0.000000,1.000000,21.000000,,,,0.000000,4.000000,4.000000,4.000000,4.000000,0.000000,66.666664,,,,,,,,24.366907,15.475704,9.210595,2.540635,2.067123,13.210022,4.839095,4.432166,2.000188,1.390276,12.072125,16.311745,15.086412,4.142341,1.973388,12.160841,15.824879,10.063389,3.428385,1.783674,0.153064,0.069533,0.243509,0.230572,0.086870
1698692249.767167,1698692249.768054,30.000000,0.000000,4207.692383,4213.333496,4187.179688,4180.512695,4231.282227,0.000000,1.000000,21.000000,,,,0.000000,4.000000,4.000000,4.000000,4.000000,0.000000,66.666664,,,,,,,,,,,,,,,,,,,,,,,,,,,,,,,,
1698692249.775047,1698692249.776034,31.000000,0.000000,4188.205078,4192.820313,4171.794922,4177.436035,4226.153809,0.000000,1.000000,21.000000,,,,0.000000,4.000000,4.000000,4.000000,4.000000,0.000000,66.666664,,,,,,,,,,,,,,,,,,,,,,,,,,,,,,,,
1698692249.782927,1698692249.784014,32.000000,0.000000,4189.230957,4194.871582,4188.205078,4190.769043,4215.897461,0.000000,1.000000,21.000000,,,,0.000000,4.000000,4.000000,4.000000,4.000000,0.000000,66.666664,,,,,,,,,,,,,,,,,,,,,,,,,,,,,,,,
1698692249.790807,1698692249.791794,33.000000,0.000000,4195.384766,4211.282227,4208.205078,4195.897461,4218.461426,0.000000,1.000000,21.000000,,,,0.000000,4.000000,4.000000,4.000000,4.000000,0.000000,66.666664,,,,,,,,,,,,,,,,,,,,,,,,,,,,,,,,
1698692249.798687,1698692249.799575,34.000000,0.000000,4190.769043,4213.333496,4203.077148,4190.769043,4218.461426,0.000000,1.000000,21.000000,,,,0.000000,4.000000,4.000000,4.000000,4.000000,0.000000,66.666664,,,,,,,,,,,,,,,,,,,,,,,,,,,,,,,,
1698692249.806568,1698692249.807355,35.000000,0.000000,4196.410156,4215.384766,4201.025879,4200.000000,4217.436035,0.000000,1.000000,21.000000,,,,0.000000,4.000000,4.000000,4.000000,4.000000,0.000000,66.666664,,,,,,,,,,,,,,,,,,,,,,,,,,,,,,,,
1698692249.814448,1698692249.815135,36.000000,0.000000,4192.820313,4211.282227,4198.974121,4192.307617,4226.666504,0.000000,1.000000,21.000000,,,,0.000000,4.000000,4.000000,4.000000,4.000000,0.000000,66.666664,,,,,,,,,,,,,,,,,,,,,,,,,,,,,,,,
1698692249.822328,1698692249.823116,37.000000,0.000000,4202.563965,4231.794922,4217.948730,4198.974121,4225.641113,0.000000,1.000000,21.000000,,,,0.000000,4.000000,4.000000,4.000000,4.000000,0.000000,66.666664,,,,,,,,,,,,,,,,,,,,,,,,,,,,,,,,
1698692249.830208,1698692249.831096,38.000000,0.000000,4218.974121,4246.153809,4236.410156,4222.563965,4216.922852,0.000000,1.000000,21.000000,,,,0.000000,4.000000,4.000000,4.000000,4.000000,0.000000,66.666664,,,,,,,,,,,,,,,,,,,,,,,,,,,,,,,,
1698692249.838089,1698692249.839076,39.000000,0.000000,4213.333496,4237.948730,4233.846191,4222.051270,4219.487305,0.000000,1.000000,21.000000,,,,0.000000,4.000000,4.000000,4.000000,4.000000,0.000000,66.666664,,,,,,,,,,,,,,,,,,,,,,,,,,,,,,,,
1698692249.845969,1698692249.847056,40.000000,0.000000,4200.512695,4231.794922,4233.846191,4204.615234,4222.563965,0.000000,1.000000,21.000000,,,,0.000000,4.000000,4.000000,4.000000,4.000000,0.000000,66.666664,,,,,,,,,,,,,,,,,,,,,,,,,,,,,,,,
1698692249.853849,1698692249.855037,41.000000,0.000000,4190.256348,4227.692383,4230.769043,4191.282227,4221.025879,0.000000,1.000000,21.000000,,,,0.000000,4.000000,4.000000,4.000000,4.000000,0.000000,66.666664,,,,,,,,,,,,,,,,,,,,,,,,,,,,,,,,
1698692249.861730,1698692249.862817,42.000000,0.000000,4215.897461,4233.846191,4238.461426,4214.871582,4215.897461,0.000000,1.000000,21.000000,,,,0.000000,4.000000,4.000000,4.000000,4.000000,0.000000,66.666664,,,,,,,,,,,,,,,,,,,,,,,,,,,,,,,,
1698692249.869610,1698692249.870797,43.000000,0.000000,4242.051270,4235.897461,4244.615234,4235.384766,4215.897461,0.000000,1.000000,21.000000,,,,0.000000,4.000000,4.000000,4.000000,4.000000,0.000000,66.666664,,,,,,,,,,,,,,,,,,,,,,,,,,,,,,,,
1698692249.877490,1698692249.878578,44.000000,0.000000,4234.358887,4240.000000,4244.615234,4223.589844,4226.153809,0.000000,1.000000,21.000000,,,,0.000000,4.000000,4.000000,4.000000,4.000000,0.000000,66.666664,,,,,,,,,,,,,,,,,,,,,,,,,,,,,,,,
1698692249.885370,1698692249.886558,45.000000,0.000000,4237.436035,4262.563965,4252.307617,4226.153809,4229.743652,0.000000,1.000000,21.000000,,,,0.000000,4.000000,4.000000,4.000000,4.000000,0.000000,66.666664,,,,,,,,32.705593,16.548929,10.212366,2.710244,2.099099,13.484731,4.857936,4.467178,2.005163,1.372060,11.929591,16.293179,13.672213,4.153625,1.998969,13.979931,15.691409,9.593517,3.316953,1.789213,0.158727,0.074731,0.198774,0.181435,0.068227
1698692249.893250,1698692249.894338,46.000000,0.000000,4228.205078,4248.205078,4236.410156,4219.487305,4218.461426,0.000000,1.000000,21.000000,,,,0.000000,4.000000,4.000000,4.000000,4.000000,0.000000,66.666664,,,,,,,,,,,,,,,,,,,,,,,,,,,,,,,,
1698692249.901131,1698692249.902319,47.000000,0.000000,4221.538574,4233.846191,4229.230957,4214.358887,4215.384766,0.000000,1.000000,21.000000,,,,0.000000,4.000000,4.000000,4.000000,4.000000,0.000000,66.666664,,,,,,,,,,,,,,,,,,,,,,,,,,,,,,,,
1698692249.909011,1698692249.910299,48.000000,0.000000,4216.922852,4231.794922,4222.563965,4209.743652,4220.000000,0.000000,1.000000,21.000000,,,,0.000000,4.000000,4.000000,4.000000,4.000000,0.000000,66.666664,,,,,,,,,,,,,,,,,,,,,,,,,,,,,,,,
1698692249.916891,1698692249.918279,49.000000,0.000000,4195.897461,4211.282227,4198.974121,4183.589844,4218.461426,0.000000,1.000000,21.000000,,,,0.000000,4.000000,4.000000,4.000000,4.000000,0.000000,66.666664,,,,,,,,,,,,,,,,,,,,,,,,,,,,,,,,
1698692249.924771,1698692249.926260,50.000000,0.000000,4196.922852,4203.077148,4194.358887,4181.538574,4216.922852,0.000000,1.000000,21.000000,,,,0.000000,4.000000,4.000000,4.000000,4.000000,0.000000,66.666664,,,,,,,,,,,,,,,,,,,,,,,,,,,,,,,,
1698692249.932652,1698692249.934240,51.000000,0.000000,4199.487305,4188.717773,4181.025879,4180.512695,4218.974121,0.000000,1.000000,21.000000,,,,0.000000,4.000000,4.000000,4.000000,4.000000,0.000000,66.666664,,,,,,,,,,,,,,,,,,,,,,,,,,,,,,,,
1698692249.940532,1698692249.942020,52.000000,0.000000,4202.563965,4186.666504,4168.717773,4174.358887,4218.974121,0.000000,1.000000,21.000000,,,,0.000000,4.000000,4.000000,4.000000,4.000000,0.000000,66.666664,,,,,,,,,,,,,,,,,,,,,,,,,,,,,,,,
1698692249.948412,1698692249.950000,53.000000,0.000000,4206.666504,4196.922852,4172.820313,4171.794922,4218.461426,0.000000,1.000000,21.000000,,,,0.000000,4.000000,4.000000,4.000000,4.000000,0.000000,66.666664,,,,,,,,,,,,,,,,,,,,,,,,,,,,,,,,
1698692249.956293,1698692249.957781,54.000000,0.000000,4200.512695,4198.974121,4182.563965,4168.205078,4217.948730,0.000000,1.000000,21.000000,,,,0.000000,4.000000,4.000000,4.000000,4.000000,0.000000,66.666664,,,,,,,,,,,,,,,,,,,,,,,,,,,,,,,,
1698692249.964173,1698692249.965761,55.000000,0.000000,4221.025879,4217.436035,4206.666504,4183.589844,4218.461426,0.000000,1.000000,21.000000,,,,0.000000,4.000000,4.000000,4.000000,4.000000,0.000000,66.666664,,,,,,,,,,,,,,,,,,,,,,,,,,,,,,,,
1698692249.972053,1698692249.973541,56.000000,0.000000,4220.000000,4213.333496,4207.692383,4181.538574,4218.461426,0.000000,1.000000,21.000000,,,,0.000000,4.000000,4.000000,4.000000,4.000000,0.000000,66.666664,,,,,,,,,,,,,,,,,,,,,,,,,,,,,,,,
1698692249.979933,1698692249.981521,57.000000,0.000000,4198.461426,4201.025879,4197.948730,4174.358887,4218.461426,0.000000,1.000000,21.000000,,,,0.000000,4.000000,4.000000,4.000000,4.000000,0.000000,66.666664,,,,,,,,,,,,,,,,,,,,,,,,,,,,,,,,
1698692249.987813,1698692249.989301,58.000000,0.000000,4197.948730,4201.025879,4188.717773,4168.205078,4218.461426,0.000000,1.000000,21.000000,,,,0.000000,4.000000,4.000000,4.000000,4.000000,0.000000,66.666664,,,,,,,,,,,,,,,,,,,,,,,,,,,,,,,,
1698692249.995694,1698692249.997282,59.000000,0.000000,4210.769043,4198.974121,4170.256348,4148.717773,4218.461426,0.000000,1.000000,21.000000,,,,0.000000,4.000000,4.000000,4.000000,4.000000,0.000000,66.666664,,,,,,,,,,,,,,,,,,,,,,,,,,,,,,,,
1698692250.003574,1698692250.005262,60.000000,0.000000,4235.897461,4205.128418,4172.820313,4154.358887,4218.461426,0.000000,1.000000,21.000000,,,,0.000000,4.000000,4.000000,4.000000,4.000000,0.000000,66.666664,,,,,,,,,,,,,,,,,,,,,,,,,,,,,,,,
1698692250.011454,1698692250.013042,61.000000,0.000000,4231.282227,4186.666504,4175.897461,4154.358887,4218.461426,0.000000,1.000000,21.000000,,,,0.000000,4.000000,4.000000,4.000000,4.000000,0.000000,66.666664,,,,,,,,40.661663,16.872913,10.496378,2.878324,1.927127,13.169198,4.812813,4.237381,1.894321,1.214774,11.509315,14.813793,11.152413,3.789612,1.817159,15.834268,14.427793,8.867660,2.958439,1.636325,0.149729,0.074357,0.156731,0.148415,0.054854
1698692250.019334,1698692250.020823,62.000000,0.000000,4228.717773,4174.358887,4192.820313,4162.051270,4218.461426,0.000000,1.000000,21.000000,,,,0.000000,4.000000,4.000000,4.000000,4.000000,0.000000,66.666664,,,,,,,,,,,,,,,,,,,,,,,,,,,,,,,,
1698692250.027215,1698692250.028603,63.000000,0.000000,4247.179688,4188.717773,4210.256348,4191.282227,4218.461426,0.000000,1.000000,21.000000,,,,0.000000,4.000000,4.000000,4.000000,4.000000,0.000000,66.666664,,,,,,,,,,,,,,,,,,,,,,,,,,,,,,,,
1698692250.035095,1698692250.036383,64.000000,0.000000,4226.666504,4174.358887,4182.563965,4172.307617,4218.461426,450.000000,1.000000,21.000000,,,,0.000000,4.000000,4.000000,4.000000,4.000000,0.000000,66.666664,,,,,,,,,,,,,,,,,,,,,,,,,,,,,,,,
1698692250.042975,1698692250.044164,65.000000,0.000000,4210.256348,4155.897461,4160.000000,4141.538574,4218.461426,450.000000,1.000000,21.000000,,,,0.000000,4.000000,4.000000,4.000000,4.000000,0.000000,66.666664,,,,,,,,,,,,,,,,,,,,,,,,,,,,,,,,
1698692250.050856,1698692250.051944,66.000000,0.000000,4207.179688,4143.589844,4149.743652,4130.256348,4218.461426,1023.000000,1.000000,21.000000,,,,0.000000,4.000000,4.000000,4.000000,4.000000,0.000000,66.666664,,,,,,,,,,,,,,,,,,,,,,,,,,,,,,,,
1698692250.058736,1698692250.059724,67.000000,0.000000,4200.512695,4141.538574,4144.615234,4129.743652,4218.461426,450.000000,1.000000,21.000000,,,,0.000000,4.000000,4.000000,4.000000,4.000000,0.000000,66.666664,,,,,,,,,,,,,,,,,,,,,,,,,,,,,,,,
1698692250.066616,1698692250.067704,68.000000,0.000000,4200.000000,4151.794922,4149.743652,4136.410156,4218.461426,1023.000000,1.000000,21.000000,,,,0.000000,4.000000,4.000000,4.000000,4.000000,0.000000,66.666664,,,,,,,,,,,,,,,,,,,,,,,,,,,,,,,,
1698692250.074496,1698692250.075685,69.000000,0.000000,4185.641113,4137.436035,4135.384766,4118.461426,4218.461426,450.000000,1.000000,21.000000,,,,0.000000,4.000000,4.000000,4.000000,4.000000,0.000000,66.666664,,,,,,,,,,,,,,,,,,,,,,,,,,,,,,,,
1698692250.082376,1698692250.083665,70.000000,0.000000,4186.666504,4135.384766,4135.384766,4115.384766,4218.461426,1023.000000,1.000000,21.000000,,,,0.000000,4.000000,4.000000,4.000000,4.000000,0.000000,66.666664,,,,,,,,,,,,,,,,,,,,,,,,,,,,,,,,
1698692250.090257,1698692250.091645,71.000000,0.000000,4199.487305,4139.487305,4143.589844,4130.769043,4218.461426,450.000000,1.000000,21.000000,,,,0.000000,4.000000,4.000000,4.000000,4.000000,0.000000,66.666664,,,,,,,,,,,,,,,,,,,,,,,,,,,,,,,,
1698692250.098137,1698692250.099625,72.000000,0.000000,4203.077148,4133.333496,4130.769043,4128.717773,4218.461426,450.000000,1.000000,21.000000,,,,0.000000,4.000000,4.000000,4.000000,4.000000,0.000000,66.666664,,,,,,,,,,,,,,,,,,,,,,,,,,,,,,,,
1698692250.106017,1698692250.107406,73.000000,0.000000,4220.512695,4139.487305,4127.179688,4127.179688,4218.461426,1023.000000,1.000000,21.000000,,,,0.000000,4.000000,4.000000,4.000000,4.000000,0.000000,66.666664,,,,,,,,,,,,,,,,,,,,,,,,,,,,,,,,
1698692250.113897,1698692250.115386,74.000000,0.000000,4251.794922,4143.589844,4136.410156,4127.692383,4218.461426,450.000000,1.000000,21.000000,,,,0.000000,4.000000,4.000000,4.000000,4.000000,0.000000,66.666664,,,,,,,,,,,,,,,,,,,,,,,,,,,,,,,,
1698692250.121778,1698692250.123366,75.000000,0.000000,4303.077148,4162.051270,4160.000000,4137.948730,4218.461426,0.000000,1.000000,21.000000,,,,0.000000,4.000000,4.000000,4.000000,4.000000,0.000000,66.666664,,,,,,,,,,,,,,,,,,,,,,,,,,,,,,,,
1698692250.129658,1698692250.131346,76.000000,0.000000,4334.871582,4166.153809,4169.230957,4153.846191,4218.461426,450.000000,1.000000,21.000000,,,,0.000000,4.000000,4.000000,4.000000,4.000000,0.000000,66.666664,,,,,,,,,,,,,,,,,,,,,,,,,,,,,,,,
1698692250.137538,1698692250.139327,77.000000,0.000000,4341.025879,4157.948730,4161.025879,4170.256348,4218.461426,450.000000,1.000000,21.000000,,,,0.000000,4.000000,4.000000,4.000000,4.000000,0.000000,66.666664,1.000000,33.333332,4.000000,2.000000,2.000000,4.000000,0.000000,45.219795,16.340275,9.939948,3.009436,1.605336,12.416167,4.683608,3.870890,1.709637,0.968647,10.840548,12.150375,8.199502,3.176915,1.488098,17.130699,12.013060,7.779311,2.460115,1.371923,0.126281,0.068395,0.122076,0.120960,0.046439
1698692250.145419,1698692250.147107,78.000000,0.000000,4343.077148,4166.153809,4156.922852,4165.128418,4218.461426,450.000000,1.000000,21.000000,,,,0.000000,4.000000,4.000000,4.000000,4.000000,0.000000,66.666664,,,,,,,,,,,,,,,,,,,,,,,,,,,,,,,,
1698692250.153299,1698692250.155087,79.000000,0.000000,4302.563965,4149.743652,4136.410156,4124.615234,4218.461426,0.000000,1.000000,21.000000,,,,0.000000,4.000000,4.000000,4.000000,4.000000,0.000000,66.666664,,,,,,,,,,,,,,,,,,,,,,,,,,,,,,,,
1698692250.161179,1698692250.162868,80.000000,0.000000,4257.948730,4131.282227,4131.282227,4124.102539,4218.461426,450.000000,1.000000,21.000000,,,,0.000000,4.000000,4.000000,4.000000,4.000000,0.000000,66.666664,,,,,,,,,,,,,,,,,,,,,,,,,,,,,,,,
1698692250.169059,1698692250.170848,81.000000,0.000000,4216.922852,4123.077148,4128.205078,4124.102539,4218.461426,450.000000,1.000000,21.000000,,,,0.000000,4.000000,4.000000,4.000000,4.000000,0.000000,66.666664,,,,,,,,,,,,,,,,,,,,,,,,,,,,,,,,
1698692250.176939,1698692250.178628,82.000000,0.000000,4183.589844,4118.974121,4119.487305,4094.358887,4218.461426,450.000000,1.000000,21.000000,,,,0.000000,4.000000,4.000000,4.000000,4.000000,0.000000,66.666664,,,,,,,,,,,,,,,,,,,,,,,,,,,,,,,,
1698692250.184820,1698692250.186609,83.000000,0.000000,4180.512695,4125.128418,4121.538574,4096.410156,4218.461426,0.000000,1.000000,21.000000,,,,0.000000,4.000000,4.000000,4.000000,4.000000,0.000000,66.666664,,,,,,,,,,,,,,,,,,,,,,,,,,,,,,,,
1698692250.192700,1698692250.194389,84.000000,0.000000,4131.282227,4086.153809,4081.025635,4072.307617,4218.461426,450.000000,1.000000,21.000000,,,,0.000000,4.000000,4.000000,4.000000,4.000000,0.000000,66.666664,,,,,,,,,,,,,,,,,,,,,,,,,,,,,,,,
1698692250.200580,1698692250.202369,85.000000,0.000000,4090.769287,4065.641113,4062.051270,4051.281982,4218.461426,450.000000,1.000000,21.000000,,,,0.000000,4.000000,4.000000,4.000000,4.000000,0.000000,66.666664,,,,,,,,,,,,,,,,,,,,,,,,,,,,,,,,
1698692250.208460,1698692250.210150,86.000000,0.000000,4110.256348,4088.205078,4094.871826,4078.461426,4218.461426,450.000000,1.000000,21.000000,,,,0.000000,4.000000,4.000000,4.000000,4.000000,0.000000,66.666664,,,,,,,,,,,,,,,,,,,,,,,,,,,,,,,,
1698692250.216341,1698692250.218130,87.000000,0.000000,4127.179688,4104.615234,4122.563965,4105.641113,4218.461426,0.000000,1.000000,21.000000,,,,0.000000,4.000000,4.000000,4.000000,4.000000,0.000000,66.666664,,,,,,,,,,,,,,,,,,,,,,,,,,,,,,,,
1698692250.224221,1698692250.225910,88.000000,0.000000,4143.077148,4127.179688,4146.153809,4143.077148,4218.461426,450.000000,1.000000,21.000000,,,,0.000000,4.000000,4.000000,4.000000,4.000000,0.000000,66.666664,,,,,,,,,,,,,,,,,,,,,,,,,,,,,,,,
1698692250.232101,1698692250.233891,89.000000,0.000000,4143.589844,4133.333496,4139.487305,4152.820313,4218.461426,450.000000,1.000000,21.000000,,,,0.000000,4.000000,4.000000,4.000000,4.000000,0.000000,66.666664,,,,,,,,,,,,,,,,,,,,,,,,,,,,,,,,
1698692250.239982,1698692250.241671,90.000000,0.000000,4127.692383,4121.025879,4121.538574,4126.666504,4218.461426,450.000000,1.000000,21.000000,,,,0.000000,4.000000,4.000000,4.000000,4.000000,0.000000,66.666664,,,,,,,,,,,,,,,,,,,,,,,,,,,,,,,,
1698692250.247862,1698692250.249651,91.000000,0.000000,4107.692383,4104.615234,4109.230957,4102.051270,4218.461426,0.000000,1.000000,21.000000,,,,0.000000,4.000000,4.000000,4.000000,4.000000,0.000000,66.666664,,,,,,,,,,,,,,,,,,,,,,,,,,,,,,,,
1698692250.255742,1698692250.257431,92.000000,0.000000,4081.538574,4077.948730,4087.692383,4080.512939,4218.461426,450.000000,1.000000,21.000000,,,,0.000000,4.000000,4.000000,4.000000,4.000000,0.000000,66.666664,,,,,,,,,,,,,,,,,,,,,,,,,,,,,,,,
1698692250.263622,1698692250.265411,93.000000,0.000000,4081.025635,4084.102539,4087.179443,4086.666748,4218.461426,450.000000,1.000000,21.000000,,,,0.000000,4.000000,4.000000,4.000000,4.000000,0.000000,66.666664,,,,,,,,44.231853,15.030291,8.683949,3.049433,1.227688,11.378428,4.433727,3.558123,1.504955,0.705539,10.223261,8.958751,5.631563,2.519778,1.111638,17.395128,9.022797,6.518155,1.968543,1.072773,0.094851,0.058538,0.095130,0.096105,0.042937
1698692250.271503,1698692250.273192,94.000000,0.000000,4080.000000,4086.153809,4092.820557,4100.000000,4218.461426,450.000000,1.000000,21.000000,,,,0.000000,4.000000,4.000000,4.000000,4.000000,0.000000,66.666664,,,,,,,,,,,,,,,,,,,,,,,,,,,,,,,,
1698692250.279383,1698692250.281172,95.000000,0.000000,4073.333252,4084.102539,4095.384521,4098.461426,4218.461426,0.000000,1.000000,21.000000,,,,0.000000,4.000000,4.000000,4.000000,4.000000,0.000000,66.666664,,,,,,,,,,,,,,,,,,,,,,,,,,,,,,,,
1698692250.287263,1698692250.288952,96.000000,0.000000,4076.923096,4094.358887,4102.051270,4096.922852,4218.461426,450.000000,1.000000,21.000000,,,,0.000000,4.000000,4.000000,4.000000,4.000000,0.000000,66.666664,,,,,,,,,,,,,,,,,,,,,,,,,,,,,,,,
1698692250.295143,1698692250.296932,97.000000,0.000000,4074.358887,4098.461426,4101.025879,4102.051270,4218.461426,450.000000,1.000000,21.000000,,,,0.000000,4.000000,4.000000,4.000000,4.000000,0.000000,66.666664,,,,,,,,,,,,,,,,,,,,,,,,,,,,,,,,
1698692250.303023,1698692250.304713,98.000000,0.000000,4078.461426,4108.717773,4102.563965,4119.487305,4218.461426,450.000000,1.000000,21.000000,,,,0.000000,4.000000,4.000000,4.000000,4.000000,0.000000,66.666664,,,,,,,,,,,,,,,,,,,,,,,,,,,,,,,,
1698692250.310904,1698692250.312493,99.000000,0.000000,4065.128174,4098.461426,4086.666748,4102.563965,4218.461426,0.000000,1.000000,21.000000,,,,0.000000,4.000000,4.000000,4.000000,4.000000,0.000000,66.666664,,,,,,,,,,,,,,,,,,,,,,,,,,,,,,,,
1698692250.318784,1698692250.320273,100.000000,0.000000,4058.974365,4092.307617,4081.538574,4083.076904,4218.461426,450.000000,1.000000,21.000000,,,,0.000000,4.000000,4.000000,4.000000,4.000000,0.000000,66.666664,,,,,,,,,,,,,,,,,,,,,,,,,,,,,,,,
1698692250.326664,1698692250.328054,101.000000,0.000000,4089.230713,4108.717773,4098.461426,4111.794922,4218.461426,450.000000,1.000000,21.000000,,,,0.000000,4.000000,4.000000,4.000000,4.000000,0.000000,66.666664,,,,,,,,,,,,,,,,,,,,,,,,,,,,,,,,
1698692250.334545,1698692250.335834,102.000000,0.000000,4091.281982,4104.615234,4092.307617,4118.974121,4218.461426,450.000000,1.000000,21.000000,,,,0.000000,4.000000,4.000000,4.000000,4.000000,0.000000,66.666664,,,,,,,,,,,,,,,,,,,,,,,,,,,,,,,,
1698692250.342425,1698692250.343614,103.000000,0.000000,4081.538574,4108.717773,4094.871826,4105.128418,4218.461426,0.000000,1.000000,21.000000,,,,0.000000,4.000000,4.000000,4.000000,4.000000,0.000000,66.666664,,,,,,,,,,,,,,,,,,,,,,,,,,,,,,,,
1698692250.350305,1698692250.351394,104.000000,0.000000,4085.641113,4123.077148,4109.743652,4103.589844,4218.461426,450.000000,1.000000,21.000000,,,,0.000000,4.000000,4.000000,4.000000,4.000000,0.000000,66.666664,,,,,,,,,,,,,,,,,,,,,,,,,,,,,,,,
1698692250.358185,1698692250.359175,105.000000,0.000000,4098.461426,4118.974121,4118.461426,4120.000000,4218.461426,450.000000,1.000000,21.000000,,,,0.000000,4.000000,4.000000,4.000000,4.000000,0.000000,66.666664,,,,,,,,,,,,,,,,,,,,,,,,,,,,,,,,
1698692250.366066,1698692250.366955,106.000000,0.000000,4114.358887,4118.974121,4122.563965,4137.436035,4218.461426,450.000000,1.000000,21.000000,,,,0.000000,4.000000,4.000000,4.000000,4.000000,0.000000,66.666664,,,,,,,,,,,,,,,,,,,,,,,,,,,,,,,,
1698692250.373946,1698692250.374935,107.000000,0.000000,4112.820313,4125.128418,4111.282227,4120.000000,4218.461426,0.000000,1.000000,21.000000,,,,0.000000,4.000000,4.000000,4.000000,4.000000,0.000000,66.666664,,,,,,,,,,,,,,,,,,,,,,,,,,,,,,,,
1698692250.381826,1698692250.382916,108.000000,0.000000,4114.871582,4133.333496,4108.717773,4111.794922,4218.461426,450.000000,1.000000,21.000000,,,,0.000000,4.000000,4.000000,4.000000,4.000000,0.000000,66.666664,,,,,,,,,,,,,,,,,,,,,,,,,,,,,,,,
1698692250.389706,1698692250.390896,109.000000,0.000000,4105.128418,4112.820313,4100.512695,4106.153809,4218.461426,450.000000,1.000000,21.000000,,,,0.000000,4.000000,4.000000,4.000000,4.000000,0.000000,66.666664,,,,,,,,38.150677,13.582973,7.126219,2.972722,0.890403,10.169461,4.126768,3.480319,1.325855,0.490799,9.860033,6.042527,4.038945,2.013981,0.781893,16.432171,6.314929,5.389037,1.615388,0.815615,0.063156,0.047001,0.074404,0.076326,0.044141
1698692250.397586,1698692250.398876,110.000000,0.000000,4088.205078,4102.563965,4097.436035,4100.000000,4218.461426,450.000000,1.000000,21.000000,,,,0.000000,4.000000,4.000000,4.000000,4.000000,0.000000,66.666664,,,,,,,,,,,,,,,,,,,,,,,,,,,,,,,,
1698692250.405467,1698692250.406657,111.000000,0.000000,4090.769287,4114.871582,4105.128418,4107.692383,4218.461426,0.000000,1.000000,21.000000,,,,0.000000,4.000000,4.000000,4.000000,4.000000,0.000000,66.666664,,,,,,,,,,,,,,,,,,,,,,,,,,,,,,,,
1698692250.413347,1698692250.414637,112.000000,0.000000,4077.948730,4092.307617,4078.974365,4086.153809,4218.461426,450.000000,1.000000,21.000000,,,,0.000000,4.000000,4.000000,4.000000,4.000000,0.000000,66.666664,,,,,,,,,,,,,,,,,,,,,,,,,,,,,,,,
1698692250.421227,1698692250.422417,113.000000,0.000000,4078.974365,4084.102539,4070.769287,4080.000000,4218.461426,450.000000,1.000000,21.000000,,,,0.000000,4.000000,4.000000,4.000000,4.000000,0.000000,66.666664,,,,,,,,,,,,,,,,,,,,,,,,,,,,,,,,
1698692250.429108,1698692250.430197,114.000000,0.000000,4087.692383,4094.358887,4085.641113,4094.871826,4218.461426,450.000000,1.000000,21.000000,,,,0.000000,4.000000,4.000000,4.000000,4.000000,0.000000,66.666664,,,,,,,,,,,,,,,,,,,,,,,,,,,,,,,,
1698692250.436988,1698692250.438178,115.000000,0.000000,4081.025635,4090.256348,4083.076904,4089.230713,4218.461426,0.000000,1.000000,21.000000,,,,0.000000,4.000000,4.000000,4.000000,4.000000,0.000000,66.666664,,,,,,,,,,,,,,,,,,,,,,,,,,,,,,,,
1698692250.444868,1698692250.446058,116.000000,0.000000,4090.256348,4102.563965,4082.051270,4093.333252,4218.461426,450.000000,1.000000,21.000000,,,,0.000000,4.000000,4.000000,4.000000,4.000000,0.000000,66.666664,,,,,,,,,,,,,,,,,,,,,,,,,,,,,,,,
1698692250.452748,1698692250.454038,117.000000,0.000000,4087.179443,4116.922852,4083.076904,4105.641113,4218.461426,450.000000,1.000000,21.000000,,,,0.000000,4.000000,4.000000,4.000000,4.000000,0.000000,66.666664,,,,,,,,,,,,,,,,,,,,,,,,,,,,,,,,
1698692250.460629,1698692250.461819,118.000000,0.000000,4082.564209,4125.128418,4094.871826,4120.512695,4218.461426,450.000000,1.000000,21.000000,,,,0.000000,4.000000,4.000000,4.000000,4.000000,0.000000,66.666664,,,,,,,,,,,,,,,,,,,,,,,,,,,,,,,,
1698692250.468509,1698692250.469799,119.000000,0.000000,4069.743652,4112.820313,4093.846191,4115.897461,4218.461426,0.000000,1.000000,21.000000,,,,0.000000,4.000000,4.000000,4.000000,4.000000,0.000000,66.666664,,,,,,,,,,,,,,,,,,,,,,,,,,,,,,,,
1698692250.476389,1698692250.477579,120.000000,0.000000,4050.256348,4096.410156,4078.461426,4092.820557,4218.461426,450.000000,1.000000,21.000000,,,,0.000000,4.000000,4.000000,4.000000,4.000000,0.000000,66.666664,,,,,,,,,,,,,,,,,,,,,,,,,,,,,,,,
1698692250.484269,1698692250.485560,121.000000,0.000000,4070.769287,4112.820313,4091.794922,4101.025879,4218.461426,450.000000,1.000000,21.000000,,,,0.000000,4.000000,4.000000,4.000000,4.000000,0.000000,66.666664,,,,,,,,,,,,,,,,,,,,,,,,,,,,,,,,
1698692250.492149,1698692250.493340,122.000000,0.000000,4080.512939,4114.871582,4095.384521,4110.256348,4218.461426,450.000000,1.000000,21.000000,,,,0.000000,4.000000,4.000000,4.000000,4.000000,0.000000,66.666664,,,,,,,,,,,,,,,,,,,,,,,,,,,,,,,,
1698692250.500030,1698692250.501320,123.000000,0.000000,4074.358887,4112.820313,4091.281982,4110.769043,4218.461426,0.000000,1.000000,21.000000,,,,0.000000,4.000000,4.000000,4.000000,4.000000,0.000000,66.666664,,,,,,,,,,,,,,,,,,,,,,,,,,,,,,,,
1698692250.507910,1698692250.509100,124.000000,0.000000,4071.281982,4123.077148,4095.384521,4108.205078,4218.461426,450.000000,1.000000,21.000000,,,,0.000000,4.000000,4.000000,4.000000,4.000000,0.000000,66.666664,,,,,,,,,,,,,,,,,,,,,,,,,,,,,,,,
1698692250.515790,1698692250.517081,125.000000,0.000000,4062.564209,4121.025879,4093.333252,4098.974121,4218.461426,450.000000,1.000000,21.000000,,,,0.000000,4.000000,4.000000,4.000000,4.000000,0.000000,66.666664,,,,,,,,30.687344,13.266751,5.669803,2.801275,0.655270,9.152809,3.905079,3.672342,1.201404,0.359616,9.898707,4.022443,3.516882,1.786564,0.552534,14.643861,4.608162,4.631724,1.476596,0.648955,0.038121,0.035828,0.058702,0.064869,0.048908
1698692250.523671,1698692250.524861,126.000000,0.000000,4066.666748,4135.384766,4099.487305,4107.692383,4218.461426,450.000000,1.000000,21.000000,,,,0.000000,4.000000,4.000000,4.000000,4.000000,0.000000,66.666664,,,,,,,,,,,,,,,,,,,,,,,,,,,,,,,,
1698692250.531551,1698692250.532841,127.000000,0.000000,4048.205078,4137.436035,4093.846191,4107.179688,4218.461426,229.000000,1.000000,21.000000,,,,0.000000,4.000000,4.000000,4.000000,4.000000,0.000000,66.666664,,,,,,,,,,,,,,,,,,,,,,,,,,,,,,,,
1698692250.539431,1698692250.540621,0.000000,0.000000,4028.205078,4131.282227,4099.487305,4116.410156,4218.461426,450.000000,1.000000,21.000000,,,,0.000000,4.000000,4.000000,4.000000,4.000000,0.000000,66.666664,,,,,,,,,,,,,,,,,,,,,,,,,,,,,,,,
1698692250.547311,1698692250.548601,1.000000,0.000000,4029.743652,4131.282227,4114.871582,4133.333496,4218.461426,450.000000,1.000000,21.000000,,,,0.000000,4.000000,4.000000,4.000000,4.000000,0.000000,66.666664,,,,,,,,,,,,,,,,,,,,,,,,,,,,,,,,
1698692250.555192,1698692250.556382,2.000000,0.000000,4018.461426,4133.333496,4111.282227,4127.179688,4218.461426,1023.000000,1.000000,21.000000,,,,0.000000,4.000000,4.000000,4.000000,4.000000,0.000000,66.666664,,,,,,,,,,,,,,,,,,,,,,,,,,,,,,,,
1698692250.563072,1698692250.564362,3.000000,0.000000,4015.897461,4147.692383,4118.461426,4132.307617,4218.461426,450.000000,1.000000,21.000000,,,,0.000000,4.000000,4.000000,4.000000,4.000000,0.000000,66.666664,,,,,,,,,,,,,,,,,,,,,,,,,,,,,,,,
1698692250.570952,1698692250.572142,4.000000,0.000000,3997.948730,4137.436035,4116.922852,4128.205078,4218.461426,1023.000000,1.000000,21.000000,,,,0.000000,4.000000,4.000000,4.000000,4.000000,0.000000,66.666664,,,,,,,,,,,,,,,,,,,,,,,,,,,,,,,,
1698692250.578832,1698692250.580122,5.000000,0.000000,3977.435791,4133.333496,4119.487305,4122.563965,4218.461426,450.000000,1.000000,21.000000,,,,0.000000,4.000000,4.000000,4.000000,4.000000,0.000000,66.666664,,,,,,,,,,,,,,,,,,,,,,,,,,,,,,,,
1698692250.586712,1698692250.587903,6.000000,0.000000,3997.948730,4164.102539,4140.512695,4137.948730,4218.461426,1023.000000,1.000000,21.000000,,,,0.000000,4.000000,4.000000,4.000000,4.000000,0.000000,66.666664,,,,,,,,,,,,,,,,,,,,,,,,,,,,,,,,
1698692250.594593,1698692250.595883,7.000000,0.000000,4016.410156,4168.205078,4126.666504,4121.025879,4218.461426,450.000000,1.000000,21.000000,,,,0.000000,4.000000,4.000000,4.000000,4.000000,0.000000,66.666664,,,,,,,,,,,,,,,,,,,,,,,,,,,,,,,,
1698692250.602473,1698692250.603663,8.000000,0.000000,4022.051270,4155.897461,4103.589844,4102.563965,4218.461426,450.000000,1.000000,21.000000,,,,0.000000,4.000000,4.000000,4.000000,4.000000,0.000000,66.666664,,,,,,,,,,,,,,,,,,,,,,,,,,,,,,,,
1698692250.610353,1698692250.611443,9.000000,0.000000,4020.000000,4151.794922,4104.615234,4115.897461,4218.461426,1023.000000,1.000000,21.000000,,,,0.000000,4.000000,4.000000,4.000000,4.000000,0.000000,66.666664,,,,,,,,,,,,,,,,,,,,,,,,,,,,,,,,
1698692250.618234,1698692250.619224,10.000000,0.000000,4027.692383,4166.153809,4128.717773,4142.563965,4218.461426,450.000000,1.000000,21.000000,,,,0.000000,4.000000,4.000000,4.000000,4.000000,0.000000,66.666664,,,,,,,,,,,,,,,,,,,,,,,,,,,,,,,,
1698692250.626114,1698692250.627004,11.000000,0.000000,4041.025635,4178.461426,4149.743652,4152.820313,4218.461426,0.000000,1.000000,21.000000,,,,0.000000,4.000000,4.000000,4.000000,4.000000,0.000000,66.666664,,,,,,,,,,,,,,,,,,,,,,,,,,,,,,,,
1698692250.633994,1698692250.634784,12.000000,0.000000,4026.666748,4157.948730,4134.358887,4129.230957,4218.461426,450.000000,1.000000,21.000000,,,,0.000000,4.000000,4.000000,4.000000,4.000000,0.000000,66.666664,,,,,,,,,,,,,,,,,,,,,,,,,,,,,,,,
1698692250.641874,1698692250.642565,13.000000,0.000000,4014.358887,4143.589844,4114.358887,4123.077148,4218.461426,450.000000,1.000000,21.000000,,,,0.000000,4.000000,4.000000,4.000000,4.000000,0.000000,66.666664,1.000000,33.333332,4.000000,2.000000,2.000000,4.000000,0.000000,26.329447,15.284475,4.622027,2.578613,0.534146,8.608040,3.923861,4.030521,1.137822,0.310826,10.314931,3.226172,3.739520,1.843073,0.426658,12.634609,4.234613,4.346267,1.542064,0.583245,0.022096,0.026484,0.048113,0.060884,0.054745
1698692250.649755,1698692250.650345,14.000000,0.000000,4003.589844,4141.538574,4097.948730,4123.077148,4218.461426,450.000000,1.000000,21.000000,,,,0.000000,4.000000,4.000000,4.000000,4.000000,0.000000,66.666664,,,,,,,,,,,,,,,,,,,,,,,,,,,,,,,,
1698692250.657635,1698692250.658125,15.000000,0.000000,4006.666748,4151.794922,4112.820313,4121.538574,4218.461426,0.000000,1.000000,21.000000,,,,0.000000,4.000000,4.000000,4.000000,4.000000,0.000000,66.666664,,,,,,,,,,,,,,,,,,,,,,,,,,,,,,,,
1698692250.665515,1698692250.665906,16.000000,0.000000,4026.666748,4176.410156,4147.692383,4139.487305,4218.461426,0.000000,1.000000,21.000000,,,,0.000000,4.000000,4.000000,4.000000,4.000000,0.000000,66.666664,,,,,,,,,,,,,,,,,,,,,,,,,,,,,,,,
1698692250.673395,1698692250.673686,17.000000,0.000000,4011.794922,4162.051270,4133.333496,4130.769043,4218.461426,0.000000,1.000000,21.000000,,,,0.000000,4.000000,4.000000,4.000000,4.000000,0.000000,66.666664,,,,,,,,,,,,,,,,,,,,,,,,,,,,,,,,
1698692250.681275,1698692250.681466,18.000000,0.000000,4005.641113,4151.794922,4121.538574,4123.589844,4218.461426,0.000000,1.000000,21.000000,,,,0.000000,4.000000,4.000000,4.000000,4.000000,0.000000,66.666664,,,,,,,,,,,,,,,,,,,,,,,,,,,,,,,,
1698692250.689156,1698692250.689446,19.000000,0.000000,4013.846191,4162.051270,4129.743652,4128.205078,4218.461426,0.000000,1.000000,21.000000,,,,0.000000,4.000000,4.000000,4.000000,4.000000,0.000000,66.666664,,,,,,,,,,,,,,,,,,,,,,,,,,,,,,,,
1698692250.697036,1698692250.697427,20.000000,0.000000,4009.743652,4164.102539,4135.384766,4126.153809,4218.461426,0.000000,1.000000,21.000000,,,,0.000000,4.000000,4.000000,4.000000,4.000000,0.000000,66.666664,,,,,,,,,,,,,,,,,,,,,,,,,,,,,,,,
1698692250.704916,1698692250.705407,21.000000,0.000000,4022.564209,4176.410156,4151.794922,4140.512695,4218.461426,0.000000,1.000000,21.000000,,,,0.000000,4.000000,4.000000,4.000000,4.000000,0.000000,66.666664,,,,,,,,,,,,,,,,,,,,,,,,,,,,,,,,
1698692250.712797,1698692250.713387,22.000000,0.000000,4026.666748,4172.307617,4147.179688,4146.153809,4218.461426,0.000000,1.000000,21.000000,,,,0.000000,4.000000,4.000000,4.000000,4.000000,0.000000,66.666664,,,,,,,,,,,,,,,,,,,,,,,,,,,,,,,,
1698692250.720677,1698692250.721168,23.000000,0.000000,4038.461426,4178.461426,4144.102539,4155.897461,4218.461426,0.000000,1.000000,21.000000,,,,0.000000,4.000000,4.000000,4.000000,4.000000,0.000000,66.666664,,,,,,,,,,,,,,,,,,,,,,,,,,,,,,,,
1698692250.728557,1698692250.728948,24.000000,0.000000,4047.179443,4198.974121,4150.769043,4160.000000,4218.461426,0.000000,1.000000,21.000000,,,,0.000000,4.000000,4.000000,4.000000,4.000000,0.000000,66.666664,,,,,,,,,,,,,,,,,,,,,,,,,,,,,,,,
1698692250.736437,1698692250.736728,25.000000,0.000000,4025.128174,4190.769043,4135.897461,4138.974121,4218.461426,0.000000,1.000000,21.000000,,,,0.000000,4.000000,4.000000,4.000000,4.000000,0.000000,66.666664,,,,,,,,,,,,,,,,,,,,,,,,,,,,,,,,
1698692250.744318,1698692250.744509,26.000000,0.000000,4023.076904,4170.256348,4118.974121,4133.333496,4218.461426,0.000000,1.000000,21.000000,,,,0.000000,4.000000,4.000000,4.000000,4.000000,0.000000,66.666664,,,,,,,,,,,,,,,,,,,,,,,,,,,,,,,,
1698692250.752198,1698692250.752489,27.000000,0.000000,4031.794922,4155.897461,4109.743652,4131.794922,4218.461426,0.000000,1.000000,21.000000,,,,0.000000,4.000000,4.000000,4.000000,4.000000,0.000000,66.666664,,,,,,,,,,,,,,,,,,,,,,,,,,,,,,,,
1698692250.760078,1698692250.760469,28.000000,0.000000,4041.025635,4168.205078,4125.128418,4137.948730,4218.461426,0.000000,1.000000,21.000000,,,,0.000000,4.000000,4.000000,4.000000,4.000000,0.000000,66.666664,,,,,,,,,,,,,,,,,,,,,,,,,,,,,,,,
1698692250.767958,1698692250.768449,29.000000,0.000000,4045.128174,4174.358887,4138.461426,4143.589844,4218.461426,0.000000,1.000000,21.000000,,,,0.000000,4.000000,4.000000,4.000000,4.000000,0.000000,66.666664,,,,,,,,27.770683,19.951996,4.125165,2.357355,0.501312,8.581065,4.275530,4.392465,1.123344,0.321202,10.768721,3.595001,4.238328,2.073454,0.375020,10.840059,5.071552,4.502593,1.733391,0.599857,0.013816,0.019539,0.041377,0.059404,0.058121
1698692250.775839,1698692250.776429,30.000000,0.000000,4045.641113,4160.000000,4127.692383,4136.922852,4218.461426,0.000000,1.000000,21.000000,,,,0.000000,4.000000,4.000000,4.000000,4.000000,0.000000,66.666664,,,,,,,,,,,,,,,,,,,,,,,,,,,,,,,,
1698692250.783719,1698692250.784410,31.000000,0.000000,4061.538574,4174.358887,4133.333496,4148.205078,4218.461426,0.000000,1.000000,21.000000,,,,0.000000,4.000000,4.000000,4.000000,4.000000,0.000000,66.666664,,,,,,,,,,,,,,,,,,,,,,,,,,,,,,,,
1698692250.791599,1698692250.792190,32.000000,0.000000,4055.897461,4176.410156,4141.538574,4146.666504,4218.461426,0.000000,1.000000,21.000000,,,,0.000000,4.000000,4.000000,4.000000,4.000000,0.000000,66.666664,,,,,,,,,,,,,,,,,,,,,,,,,,,,,,,,
1698692250.799479,1698692250.800170,33.000000,0.000000,4056.410156,4170.256348,4144.615234,4142.563965,4218.461426,0.000000,1.000000,21.000000,,,,0.000000,4.000000,4.000000,4.000000,4.000000,0.000000,66.666664,,,,,,,,,,,,,,,,,,,,,,,,,,,,,,,,
1698692250.807360,1698692250.807951,34.000000,0.000000,4064.102539,4164.102539,4127.692383,4144.102539,4218.461426,0.000000,1.000000,21.000000,,,,0.000000,4.000000,4.000000,4.000000,4.000000,0.000000,66.666664,,,,,,,,,,,,,,,,,,,,,,,,,,,,,,,,
1698692250.815240,1698692250.815931,35.000000,0.000000,4046.153809,4149.743652,4105.128418,4128.205078,4218.461426,0.000000,1.000000,21.000000,,,,0.000000,4.000000,4.000000,4.000000,4.000000,0.000000,66.666664,,,,,,,,,,,,,,,,,,,,,,,,,,,,,,,,
1698692250.823120,1698692250.823711,36.000000,0.000000,4056.923096,4168.205078,4123.077148,4136.922852,4218.461426,0.000000,1.000000,21.000000,,,,0.000000,4.000000,4.000000,4.000000,4.000000,0.000000,66.666664,,,,,,,,,,,,,,,,,,,,,,,,,,,,,,,,
1698692250.831000,1698692250.831692,37.000000,0.000000,4077.948730,4170.256348,4128.717773,4150.256348,4218.461426,0.000000,1.000000,21.000000,,,,0.000000,4.000000,4.000000,4.000000,4.000000,0.000000,66.666664,,,,,,,,,,,,,,,,,,,,,,,,,,,,,,,,
1698692250.838881,1698692250.839472,38.000000,0.000000,4087.179443,4168.205078,4127.692383,4154.871582,4218.461426,0.000000,1.000000,21.000000,,,,0.000000,4.000000,4.000000,4.000000,4.000000,0.000000,66.666664,,,,,,,,,,,,,,,,,,,,,,,,,,,,,,,,
1698692250.846761,1698692250.847452,39.000000,0.000000,4094.358887,4180.512695,4141.025879,4159.487305,4218.461426,0.000000,1.000000,21.000000,,,,0.000000,4.000000,4.000000,4.000000,4.000000,0.000000,66.666664,,,,,,,,,,,,,,,,,,,,,,,,,,,,,,,,
1698692250.854641,1698692250.855232,40.000000,0.000000,4084.615479,4168.205078,4136.410156,4149.230957,4218.461426,0.000000,1.000000,21.000000,,,,0.000000,4.000000,4.000000,4.000000,4.000000,0.000000,66.666664,,,,,,,,,,,,,,,,,,,,,,,,,,,,,,,,
1698692250.862521,1698692250.863212,41.000000,0.000000,4092.820557,4174.358887,4145.641113,4163.077148,4218.461426,0.000000,1.000000,21.000000,,,,0.000000,4.000000,4.000000,4.000000,4.000000,0.000000,66.666664,,,,,,,,,,,,,,,,,,,,,,,,,,,,,,,,
1698692250.870402,1698692250.870993,42.000000,0.000000,4109.230957,4192.820313,4153.846191,4176.922852,4218.461426,0.000000,1.000000,21.000000,,,,0.000000,4.000000,4.000000,4.000000,4.000000,0.000000,66.666664,,,,,,,,,,,,,,,,,,,,,,,,,,,,,,,,
1698692250.878282,1698692250.878973,43.000000,0.000000,4119.487305,4201.025879,4162.051270,4174.358887,4218.461426,0.000000,1.000000,21.000000,,,,0.000000,4.000000,4.000000,4.000000,4.000000,0.000000,66.666664,,,,,,,,,,,,,,,,,,,,,,,,,,,,,,,,
1698692250.886162,1698692250.886753,44.000000,0.000000,4122.051270,4203.077148,4169.230957,4177.436035,4218.461426,0.000000,1.000000,21.000000,,,,0.000000,4.000000,4.000000,4.000000,4.000000,0.000000,66.666664,,,,,,,,,,,,,,,,,,,,,,,,,,,,,,,,
1698692250.894042,1698692250.894733,45.000000,0.000000,4106.666504,4184.615234,4147.179688,4173.846191,4218.461426,0.000000,1.000000,21.000000,,,,0.000000,4.000000,4.000000,4.000000,4.000000,0.000000,66.666664,,,,,,,,33.826756,26.172085,4.219768,2.177375,0.520400,8.836300,4.877571,4.618604,1.142194,0.367099,10.840973,4.688497,4.675155,2.348736,0.370973,9.417216,6.632616,5.010162,1.968733,0.667153,0.010011,0.014592,0.035599,0.055046,0.056107
1698692250.901923,1698692250.902514,46.000000,0.000000,4115.897461,4180.512695,4137.948730,4177.948730,4218.461426,0.000000,1.000000,21.000000,,,,0.000000,4.000000,4.000000,4.000000,4.000000,0.000000,66.666664,,,,,,,,,,,,,,,,,,,,,,,,,,,,,,,,
1698692250.909803,1698692250.910494,47.000000,0.000000,4125.641113,4182.563965,4133.846191,4166.153809,4218.461426,0.000000,1.000000,21.000000,,,,0.000000,4.000000,4.000000,4.000000,4.000000,0.000000,66.666664,,,,,,,,,,,,,,,,,,,,,,,,,,,,,,,,
1698692250.917683,1698692250.918274,48.000000,0.000000,4126.153809,4182.563965,4132.820313,4157.436035,4218.461426,0.000000,1.000000,21.000000,,,,0.000000,4.000000,4.000000,4.000000,4.000000,0.000000,66.666664,,,,,,,,,,,,,,,,,,,,,,,,,,,,,,,,
1698692250.925563,1698692250.926054,49.000000,0.000000,4146.153809,4196.922852,4151.794922,4185.641113,4218.461426,0.000000,1.000000,21.000000,,,,0.000000,4.000000,4.000000,4.000000,4.000000,0.000000,66.666664,,,,,,,,,,,,,,,,,,,,,,,,,,,,,,,,
1698692250.933444,1698692250.933835,50.000000,0.000000,4165.641113,4190.769043,4155.897461,4192.307617,4218.461426,0.000000,1.000000,21.000000,,,,0.000000,4.000000,4.000000,4.000000,4.000000,0.000000,66.666664,,,,,,,,,,,,,,,,,,,,,,,,,,,,,,,,
1698692250.941324,1698692250.941615,51.000000,0.000000,4218.974121,4196.922852,4171.282227,4193.846191,4218.461426,0.000000,1.000000,21.000000,,,,0.000000,4.000000,4.000000,4.000000,4.000000,0.000000,66.666664,,,,,,,,,,,,,,,,,,,,,,,,,,,,,,,,
1698692250.949204,1698692250.949395,52.000000,0.000000,4290.769043,4221.538574,4191.282227,4205.641113,4218.461426,0.000000,1.000000,21.000000,,,,0.000000,4.000000,4.000000,4.000000,4.000000,0.000000,66.666664,,,,,,,,,,,,,,,,,,,,,,,,,,,,,,,,
1698692250.957084,1698692250.957176,53.000000,0.000000,4327.179688,4229.743652,4188.717773,4205.128418,4218.461426,0.000000,1.000000,21.000000,,,,0.000000,4.000000,4.000000,4.000000,4.000000,0.000000,66.666664,,,,,,,,,,,,,,,,,,,,,,,,,,,,,,,,
