title:instagram, start timestamp:1698692528.452534, stop timestamp:1698692589.634830, headset type:INSIGHT, headset serial:5A688E18, headset firmware:926, channels:53, sampling rate:eeg_128;pow_8, samples:7765      , version:2.2, 
Timestamp,OriginalTimestamp,EEG.Counter,EEG.Interpolated,EEG.AF3,EEG.T7,EEG.Pz,EEG.T8,EEG.AF4,EEG.RawCq,EEG.Battery,EEG.BatteryPercent,MarkerIndex,MarkerType,MarkerValueInt,EEG.MarkerHardware,CQ.AF3,CQ.T7,CQ.Pz,CQ.T8,CQ.AF4,CQ.Overall,EQ.SampleRateQuality,EQ.OVERALL,EQ.AF3,EQ.T7,EQ.Pz,EQ.T8,EQ.AF4,POW.AF3.Theta,POW.AF3.Alpha,POW.AF3.BetaL,POW.AF3.BetaH,POW.AF3.Gamma,POW.T7.Theta,POW.T7.Alpha,POW.T7.BetaL,POW.T7.BetaH,POW.T7.Gamma,POW.Pz.Theta,POW.Pz.Alpha,POW.Pz.BetaL,POW.Pz.BetaH,POW.Pz.Gamma,POW.T8.Theta,POW.T8.Alpha,POW.T8.BetaL,POW.T8.BetaH,POW.T8.Gamma,POW.AF4.Theta,POW.AF4.Alpha,POW.AF4.BetaL,POW.AF4.BetaH,POW.AF4.Gamma
1698692528.452534,1698692528.454097,67.000000,0.000000,4470.256348,4281.025879,4193.333496,4253.846191,4224.615234,450.000000,0.000000,13.000000,,,,0.000000,2.000000,2.000000,2.000000,4.000000,0.000000,33.333332,,,,,,,,,,,,,,,,,,,,,,,,,,,,,,,,
1698692528.460414,1698692528.461877,68.000000,0.000000,4523.077148,4276.922852,4176.410156,4246.666504,4235.897461,268.000000,0.000000,13.000000,,,,0.000000,2.000000,2.000000,2.000000,4.000000,0.000000,33.333332,,,,,,,,,,,,,,,,,,,,,,,,,,,,,,,,
1698692528.468295,1698692528.469657,69.000000,0.000000,4561.538574,4283.077148,4184.615234,4248.205078,4233.333496,450.000000,0.000000,13.000000,,,,0.000000,2.000000,2.000000,2.000000,4.000000,0.000000,33.333332,,,,,,,,,,,,,,,,,,,,,,,,,,,,,,,,
1698692528.476175,1698692528.477438,70.000000,0.000000,4563.077148,4272.820313,4185.128418,4240.512695,4228.717773,272.000000,0.000000,13.000000,,,,0.000000,2.000000,2.000000,2.000000,4.000000,0.000000,33.333332,,,,,,,,,,,,,,,,,,,,,,,,,,,,,,,,
1698692528.484055,1698692528.485218,71.000000,0.000000,4563.077148,4278.974121,4176.410156,4249.743652,4233.333496,450.000000,0.000000,13.000000,,,,0.000000,2.000000,2.000000,2.000000,4.000000,0.000000,33.333332,,,,,,,,,,,,,,,,,,,,,,,,,,,,,,,,
1698692528.491935,1698692528.492998,72.000000,0.000000,4548.205078,4283.077148,4175.384766,4245.128418,4233.333496,450.000000,0.000000,13.000000,,,,0.000000,2.000000,2.000000,2.000000,4.000000,0.000000,33.333332,,,,,,,,,,,,,,,,,,,,,,,,,,,,,,,,
1698692528.499815,1698692528.500979,73.000000,0.000000,4523.589844,4276.922852,4192.307617,4227.692383,4222.563965,312.000000,0.000000,13.000000,,,,0.000000,2.000000,2.000000,2.000000,4.000000,0.000000,33.333332,,,,,,,,,,,,,,,,,,,,,,,,,,,,,,,,
1698692528.507696,1698692528.508959,74.000000,0.000000,4508.205078,4285.128418,4198.974121,4243.077148,4214.871582,450.000000,0.000000,13.000000,,,,0.000000,2.000000,2.000000,2.000000,4.000000,0.000000,33.333332,,,,,,,,,,,,,,,,,,,,,,,,,,,,,,,,
1698692528.515576,1698692528.516739,75.000000,0.000000,4475.384766,4289.230957,4182.051270,4252.307617,4226.153809,0.000000,0.000000,13.000000,,,,0.000000,2.000000,2.000000,2.000000,4.000000,0.000000,33.333332,,,,,,,,,,,,,,,,,,,,,,,,,,,,,,,,
1698692528.523456,1698692528.524519,76.000000,0.000000,4458.461426,4301.538574,4192.307617,4255.897461,4237.948730,450.000000,0.000000,13.000000,,,,0.000000,2.000000,2.000000,2.000000,4.000000,0.000000,33.333332,,,,,,,,,,,,,,,,,,,,,,,,,,,,,,,,
1698692528.531336,1698692528.532300,77.000000,0.000000,4447.179688,4299.487305,4202.563965,4259.487305,4235.897461,450.000000,0.000000,13.000000,,,,0.000000,2.000000,2.000000,2.000000,4.000000,0.000000,33.333332,1.000000,33.333332,2.000000,2.000000,2.000000,4.000000,0.000000,52.495926,18.823599,2.477591,0.695227,0.413296,6.554514,1.876534,2.612268,0.488844,0.696275,9.178611,3.343362,2.261941,0.819144,0.541101,4.602046,2.731281,2.447405,0.588227,0.788816,0.482327,0.354576,0.389079,0.153564,0.129155
1698692528.539217,1698692528.540080,78.000000,0.000000,4431.282227,4285.128418,4206.153809,4257.948730,4234.358887,450.000000,0.000000,13.000000,,,,0.000000,2.000000,2.000000,2.000000,4.000000,0.000000,33.333332,,,,,,,,,,,,,,,,,,,,,,,,,,,,,,,,
1698692528.547097,1698692528.548060,79.000000,0.000000,4414.871582,4287.179688,4216.410156,4266.666504,4236.922852,0.000000,0.000000,13.000000,,,,0.000000,2.000000,2.000000,2.000000,4.000000,0.000000,33.333332,,,,,,,,,,,,,,,,,,,,,,,,,,,,,,,,
1698692528.554977,1698692528.556040,80.000000,0.000000,4370.256348,4272.820313,4203.077148,4267.692383,4236.410156,450.000000,0.000000,13.000000,,,,0.000000,2.000000,2.000000,2.000000,4.000000,0.000000,33.333332,,,,,,,,,,,,,,,,,,,,,,,,,,,,,,,,
1698692528.562858,1698692528.564021,81.000000,0.000000,4353.846191,4268.717773,4198.974121,4271.282227,4235.897461,450.000000,0.000000,13.000000,,,,0.000000,2.000000,2.000000,2.000000,4.000000,0.000000,33.333332,,,,,,,,,,,,,,,,,,,,,,,,,,,,,,,,
1698692528.570738,1698692528.572001,82.000000,0.000000,4361.538574,4272.820313,4198.461426,4265.128418,4235.897461,450.000000,0.000000,13.000000,,,,0.000000,2.000000,2.000000,2.000000,4.000000,0.000000,33.333332,,,,,,,,,,,,,,,,,,,,,,,,,,,,,,,,
1698692528.578618,1698692528.579981,83.000000,0.000000,4341.538574,4266.666504,4186.153809,4242.051270,4235.897461,0.000000,0.000000,13.000000,,,,0.000000,2.000000,2.000000,2.000000,4.000000,0.000000,33.333332,,,,,,,,,,,,,,,,,,,,,,,,,,,,,,,,
1698692528.586498,1698692528.587961,84.000000,0.000000,4321.025879,4268.717773,4193.333496,4238.974121,4236.410156,450.000000,0.000000,13.000000,,,,0.000000,2.000000,2.000000,2.000000,4.000000,0.000000,33.333332,,,,,,,,,,,,,,,,,,,,,,,,,,,,,,,,
1698692528.594378,1698692528.595742,85.000000,0.000000,4302.051270,4256.410156,4191.794922,4247.179688,4236.410156,450.000000,0.000000,13.000000,,,,0.000000,2.000000,2.000000,2.000000,4.000000,0.000000,33.333332,,,,,,,,,,,,,,,,,,,,,,,,,,,,,,,,
1698692528.602259,1698692528.603522,86.000000,0.000000,4293.846191,4256.410156,4189.230957,4251.794922,4234.358887,450.000000,0.000000,13.000000,,,,0.000000,2.000000,2.000000,2.000000,4.000000,0.000000,33.333332,,,,,,,,,,,,,,,,,,,,,,,,,,,,,,,,
1698692528.610139,1698692528.611502,87.000000,0.000000,4284.102539,4256.410156,4190.256348,4240.512695,4236.922852,0.000000,0.000000,13.000000,,,,0.000000,2.000000,2.000000,2.000000,4.000000,0.000000,33.333332,,,,,,,,,,,,,,,,,,,,,,,,,,,,,,,,
1698692528.618019,1698692528.619283,88.000000,0.000000,4276.922852,4246.153809,4196.922852,4246.153809,4236.410156,450.000000,0.000000,13.000000,,,,0.000000,2.000000,2.000000,2.000000,4.000000,0.000000,33.333332,,,,,,,,,,,,,,,,,,,,,,,,,,,,,,,,
1698692528.625899,1698692528.627263,89.000000,0.000000,4300.512695,4266.666504,4225.641113,4278.461426,4223.589844,450.000000,0.000000,13.000000,,,,0.000000,2.000000,2.000000,2.000000,4.000000,0.000000,33.333332,,,,,,,,,,,,,,,,,,,,,,,,,,,,,,,,
1698692528.633780,1698692528.635043,90.000000,0.000000,4293.333496,4272.820313,4226.666504,4271.794922,4213.333496,450.000000,0.000000,13.000000,,,,0.000000,2.000000,2.000000,2.000000,4.000000,0.000000,33.333332,,,,,,,,,,,,,,,,,,,,,,,,,,,,,,,,
1698692528.641660,1698692528.643023,91.000000,0.000000,4274.358887,4262.563965,4218.974121,4263.077148,4223.589844,0.000000,0.000000,13.000000,,,,0.000000,2.000000,2.000000,2.000000,4.000000,0.000000,33.333332,,,,,,,,,,,,,,,,,,,,,,,,,,,,,,,,
1698692528.649540,1698692528.651004,92.000000,0.000000,4270.256348,4260.512695,4217.436035,4268.717773,4233.846191,450.000000,0.000000,13.000000,,,,0.000000,2.000000,2.000000,2.000000,4.000000,0.000000,33.333332,,,,,,,,,,,,,,,,,,,,,,,,,,,,,,,,
1698692528.657421,1698692528.658984,93.000000,0.000000,4251.282227,4256.410156,4205.641113,4245.641113,4226.153809,450.000000,0.000000,13.000000,,,,0.000000,2.000000,2.000000,2.000000,4.000000,0.000000,33.333332,,,,,,,,45.663792,16.040312,1.534395,0.801645,0.437588,6.940408,1.575637,2.493726,0.548535,0.716371,10.195876,3.963325,2.595604,0.789362,0.564890,4.291400,2.921552,2.393901,0.543879,0.778985,0.559217,0.506583,0.448458,0.151728,0.137830
1698692528.665301,1698692528.666764,94.000000,0.000000,4255.384766,4268.717773,4217.948730,4235.384766,4222.563965,450.000000,0.000000,13.000000,,,,0.000000,2.000000,2.000000,2.000000,4.000000,0.000000,33.333332,,,,,,,,,,,,,,,,,,,,,,,,,,,,,,,,
1698692528.673181,1698692528.674744,95.000000,0.000000,4262.051270,4272.820313,4225.128418,4243.077148,4233.333496,0.000000,0.000000,13.000000,,,,0.000000,2.000000,2.000000,2.000000,4.000000,0.000000,33.333332,,,,,,,,,,,,,,,,,,,,,,,,,,,,,,,,
1698692528.681061,1698692528.682524,96.000000,0.000000,4256.410156,4274.871582,4231.794922,4259.487305,4234.358887,450.000000,0.000000,13.000000,,,,0.000000,2.000000,2.000000,2.000000,4.000000,0.000000,33.333332,,,,,,,,,,,,,,,,,,,,,,,,,,,,,,,,
1698692528.688942,1698692528.690505,97.000000,0.000000,4257.436035,4283.077148,4247.179688,4274.871582,4222.051270,450.000000,0.000000,13.000000,,,,0.000000,2.000000,2.000000,2.000000,4.000000,0.000000,33.333332,,,,,,,,,,,,,,,,,,,,,,,,,,,,,,,,
1698692528.696822,1698692528.698285,98.000000,0.000000,4251.282227,4272.820313,4241.025879,4261.538574,4221.538574,450.000000,0.000000,13.000000,,,,0.000000,2.000000,2.000000,2.000000,4.000000,0.000000,33.333332,,,,,,,,,,,,,,,,,,,,,,,,,,,,,,,,
1698692528.704702,1698692528.706265,99.000000,0.000000,4240.512695,4268.717773,4228.717773,4258.461426,4230.256348,0.000000,0.000000,13.000000,,,,0.000000,2.000000,2.000000,2.000000,4.000000,0.000000,33.333332,,,,,,,,,,,,,,,,,,,,,,,,,,,,,,,,
1698692528.712582,1698692528.714045,100.000000,0.000000,4225.641113,4268.717773,4216.410156,4254.358887,4230.256348,450.000000,0.000000,13.000000,,,,0.000000,2.000000,2.000000,2.000000,4.000000,0.000000,33.333332,,,,,,,,,,,,,,,,,,,,,,,,,,,,,,,,
1698692528.720462,1698692528.722026,101.000000,0.000000,4230.256348,4276.922852,4207.692383,4242.051270,4231.282227,450.000000,0.000000,13.000000,,,,0.000000,2.000000,2.000000,2.000000,4.000000,0.000000,33.333332,,,,,,,,,,,,,,,,,,,,,,,,,,,,,,,,
1698692528.728343,1698692528.730006,102.000000,0.000000,4231.794922,4276.922852,4190.769043,4233.333496,4230.256348,450.000000,0.000000,13.000000,,,,0.000000,2.000000,2.000000,2.000000,4.000000,0.000000,33.333332,,,,,,,,,,,,,,,,,,,,,,,,,,,,,,,,
1698692528.736223,1698692528.737986,103.000000,0.000000,4203.589844,4252.307617,4167.179688,4214.871582,4224.615234,0.000000,0.000000,13.000000,,,,0.000000,2.000000,2.000000,2.000000,4.000000,0.000000,33.333332,,,,,,,,,,,,,,,,,,,,,,,,,,,,,,,,
1698692528.744103,1698692528.745766,104.000000,0.000000,4212.307617,4260.512695,4187.179688,4228.717773,4222.563965,450.000000,0.000000,13.000000,,,,0.000000,2.000000,2.000000,2.000000,4.000000,0.000000,33.333332,,,,,,,,,,,,,,,,,,,,,,,,,,,,,,,,
1698692528.751984,1698692528.753647,105.000000,0.000000,4228.205078,4270.769043,4197.948730,4249.743652,4222.051270,450.000000,0.000000,13.000000,,,,0.000000,2.000000,2.000000,2.000000,4.000000,0.000000,33.333332,,,,,,,,,,,,,,,,,,,,,,,,,,,,,,,,
1698692528.759864,1698692528.761427,106.000000,0.000000,4210.256348,4244.102539,4166.153809,4237.948730,4217.436035,450.000000,0.000000,13.000000,,,,0.000000,2.000000,2.000000,2.000000,4.000000,0.000000,33.333332,,,,,,,,,,,,,,,,,,,,,,,,,,,,,,,,
1698692528.767744,1698692528.769207,107.000000,0.000000,4203.589844,4223.589844,4153.333496,4229.230957,4218.974121,0.000000,0.000000,13.000000,,,,0.000000,2.000000,2.000000,2.000000,4.000000,0.000000,33.333332,,,,,,,,,,,,,,,,,,,,,,,,,,,,,,,,
1698692528.775624,1698692528.776988,108.000000,0.000000,4197.948730,4217.436035,4162.563965,4225.128418,4222.051270,450.000000,0.000000,13.000000,,,,0.000000,2.000000,2.000000,2.000000,4.000000,0.000000,33.333332,,,,,,,,,,,,,,,,,,,,,,,,,,,,,,,,
1698692528.783505,1698692528.784768,109.000000,0.000000,4193.846191,4225.641113,4165.641113,4220.512695,4224.102539,450.000000,0.000000,13.000000,,,,0.000000,2.000000,2.000000,2.000000,4.000000,0.000000,33.333332,,,,,,,,41.419346,14.573274,0.897713,0.905238,0.446254,6.908126,1.422349,2.220891,0.630598,0.700663,12.208636,4.939408,3.141912,0.792941,0.605046,4.115792,3.366313,2.441672,0.542248,0.767716,0.598025,0.698638,0.519320,0.151213,0.145548
1698692528.791385,1698692528.792548,110.000000,0.000000,4195.897461,4229.743652,4150.769043,4217.948730,4230.256348,450.000000,0.000000,13.000000,,,,0.000000,2.000000,2.000000,2.000000,4.000000,0.000000,33.333332,,,,,,,,,,,,,,,,,,,,,,,,,,,,,,,,
1698692528.799265,1698692528.800329,111.000000,0.000000,4214.358887,4242.051270,4158.461426,4231.794922,4233.333496,0.000000,0.000000,13.000000,,,,0.000000,2.000000,2.000000,2.000000,4.000000,0.000000,33.333332,,,,,,,,,,,,,,,,,,,,,,,,,,,,,,,,
1698692528.807145,1698692528.808109,112.000000,0.000000,4228.717773,4252.307617,4168.717773,4244.102539,4230.256348,450.000000,0.000000,13.000000,,,,0.000000,2.000000,2.000000,2.000000,4.000000,0.000000,33.333332,,,,,,,,,,,,,,,,,,,,,,,,,,,,,,,,
1698692528.815026,1698692528.815889,113.000000,0.000000,4201.025879,4217.436035,4129.743652,4216.922852,4231.794922,450.000000,0.000000,13.000000,,,,0.000000,2.000000,2.000000,2.000000,4.000000,0.000000,33.333332,,,,,,,,,,,,,,,,,,,,,,,,,,,,,,,,
1698692528.822906,1698692528.823669,114.000000,0.000000,4186.153809,4194.871582,4111.794922,4206.666504,4232.307617,450.000000,0.000000,13.000000,,,,0.000000,2.000000,2.000000,2.000000,4.000000,0.000000,33.333332,,,,,,,,,,,,,,,,,,,,,,,,,,,,,,,,
1698692528.830786,1698692528.831450,115.000000,0.000000,4175.897461,4188.717773,4113.846191,4201.538574,4230.769043,0.000000,0.000000,13.000000,,,,0.000000,2.000000,2.000000,2.000000,4.000000,0.000000,33.333332,,,,,,,,,,,,,,,,,,,,,,,,,,,,,,,,
1698692528.838666,1698692528.839230,116.000000,0.000000,4160.000000,4184.615234,4107.179688,4183.077148,4230.256348,450.000000,0.000000,13.000000,,,,0.000000,2.000000,2.000000,2.000000,4.000000,0.000000,33.333332,,,,,,,,,,,,,,,,,,,,,,,,,,,,,,,,
1698692528.846547,1698692528.847010,117.000000,0.000000,4182.051270,4207.179688,4128.205078,4200.512695,4230.769043,450.000000,0.000000,13.000000,,,,0.000000,2.000000,2.000000,2.000000,4.000000,0.000000,33.333332,,,,,,,,,,,,,,,,,,,,,,,,,,,,,,,,
1698692528.854427,1698692528.854791,118.000000,0.000000,4191.794922,4205.128418,4140.000000,4206.666504,4230.769043,450.000000,0.000000,13.000000,,,,0.000000,2.000000,2.000000,2.000000,4.000000,0.000000,33.333332,,,,,,,,,,,,,,,,,,,,,,,,,,,,,,,,
1698692528.862307,1698692528.862771,119.000000,0.000000,4187.692383,4198.974121,4138.974121,4203.077148,4230.769043,0.000000,0.000000,13.000000,,,,0.000000,2.000000,2.000000,2.000000,4.000000,0.000000,33.333332,,,,,,,,,,,,,,,,,,,,,,,,,,,,,,,,
1698692528.870187,1698692528.870751,120.000000,0.000000,4191.282227,4215.384766,4149.743652,4220.512695,4230.769043,450.000000,0.000000,13.000000,,,,0.000000,2.000000,2.000000,2.000000,4.000000,0.000000,33.333332,,,,,,,,,,,,,,,,,,,,,,,,,,,,,,,,
1698692528.878068,1698692528.878732,121.000000,0.000000,4192.820313,4229.743652,4167.692383,4227.692383,4230.769043,450.000000,0.000000,13.000000,,,,0.000000,2.000000,2.000000,2.000000,4.000000,0.000000,33.333332,,,,,,,,,,,,,,,,,,,,,,,,,,,,,,,,
1698692528.885948,1698692528.886712,122.000000,0.000000,4208.205078,4246.153809,4181.025879,4227.179688,4230.256348,450.000000,0.000000,13.000000,,,,0.000000,2.000000,2.000000,2.000000,4.000000,0.000000,33.333332,,,,,,,,,,,,,,,,,,,,,,,,,,,,,,,,
1698692528.893828,1698692528.894692,123.000000,0.000000,4204.615234,4237.948730,4158.461426,4207.179688,4230.256348,0.000000,0.000000,13.000000,,,,0.000000,2.000000,2.000000,2.000000,4.000000,0.000000,33.333332,,,,,,,,,,,,,,,,,,,,,,,,,,,,,,,,
1698692528.901708,1698692528.902672,124.000000,0.000000,4187.692383,4221.538574,4143.077148,4197.948730,4229.743652,450.000000,0.000000,13.000000,,,,0.000000,2.000000,2.000000,2.000000,4.000000,0.000000,33.333332,,,,,,,,,,,,,,,,,,,,,,,,,,,,,,,,
1698692528.909589,1698692528.910452,125.000000,0.000000,4186.153809,4217.436035,4157.436035,4207.179688,4231.282227,450.000000,0.000000,13.000000,,,,0.000000,2.000000,2.000000,2.000000,4.000000,0.000000,33.333332,,,,,,,,43.024643,15.146336,0.830023,1.011060,0.433225,6.528697,1.362786,1.861311,0.722555,0.652598,15.098846,5.993132,3.877288,0.861343,0.656545,3.987795,3.871718,2.691423,0.584196,0.753357,0.588823,0.889241,0.601575,0.156481,0.155089
1698692528.917469,1698692528.918233,126.000000,0.000000,4186.153809,4211.282227,4169.743652,4200.512695,4227.179688,450.000000,0.000000,13.000000,,,,0.000000,2.000000,2.000000,2.000000,4.000000,0.000000,33.333332,,,,,,,,,,,,,,,,,,,,,,,,,,,,,,,,
1698692528.925349,1698692528.926213,127.000000,0.000000,4189.230957,4221.538574,4181.538574,4203.589844,4222.051270,227.000000,0.000000,13.000000,,,,0.000000,2.000000,2.000000,2.000000,4.000000,0.000000,33.333332,,,,,,,,,,,,,,,,,,,,,,,,,,,,,,,,
1698692528.933229,1698692528.934193,0.000000,0.000000,4174.358887,4217.436035,4173.846191,4202.051270,4227.179688,450.000000,0.000000,13.000000,,,,0.000000,2.000000,2.000000,2.000000,4.000000,0.000000,33.333332,,,,,,,,,,,,,,,,,,,,,,,,,,,,,,,,
1698692528.941110,1698692528.942174,1.000000,0.000000,4172.307617,4217.436035,4177.436035,4206.153809,4228.717773,450.000000,0.000000,13.000000,,,,0.000000,2.000000,2.000000,2.000000,4.000000,0.000000,33.333332,,,,,,,,,,,,,,,,,,,,,,,,,,,,,,,,
1698692528.948990,1698692528.949954,2.000000,0.000000,4189.743652,4231.794922,4191.794922,4216.922852,4216.922852,309.000000,0.000000,13.000000,,,,0.000000,2.000000,2.000000,2.000000,4.000000,0.000000,33.333332,,,,,,,,,,,,,,,,,,,,,,,,,,,,,,,,
1698692528.956870,1698692528.957934,3.000000,0.000000,4180.000000,4215.384766,4173.333496,4203.589844,4217.436035,450.000000,0.000000,13.000000,,,,0.000000,2.000000,2.000000,2.000000,4.000000,0.000000,33.333332,,,,,,,,,,,,,,,,,,,,,,,,,,,,,,,,
1698692528.964750,1698692528.965714,4.000000,0.000000,4180.512695,4207.179688,4173.333496,4208.205078,4226.666504,304.000000,0.000000,13.000000,,,,0.000000,2.000000,2.000000,2.000000,4.000000,0.000000,33.333332,,,,,,,,,,,,,,,,,,,,,,,,,,,,,,,,
1698692528.972631,1698692528.973694,5.000000,0.000000,4185.128418,4207.179688,4189.743652,4210.256348,4223.589844,450.000000,0.000000,13.000000,,,,0.000000,2.000000,2.000000,2.000000,4.000000,0.000000,33.333332,,,,,,,,,,,,,,,,,,,,,,,,,,,,,,,,
1698692528.980511,1698692528.981475,6.000000,0.000000,4185.641113,4209.230957,4195.897461,4201.538574,4224.102539,311.000000,0.000000,13.000000,,,,0.000000,2.000000,2.000000,2.000000,4.000000,0.000000,33.333332,,,,,,,,,,,,,,,,,,,,,,,,,,,,,,,,
1698692528.988391,1698692528.989455,7.000000,0.000000,4187.179688,4215.384766,4190.256348,4210.769043,4234.358887,450.000000,0.000000,13.000000,,,,0.000000,2.000000,2.000000,2.000000,4.000000,0.000000,33.333332,,,,,,,,,,,,,,,,,,,,,,,,,,,,,,,,
1698692528.996271,1698692528.997235,8.000000,0.000000,4174.358887,4198.974121,4174.871582,4205.641113,4233.333496,450.000000,0.000000,13.000000,,,,0.000000,2.000000,2.000000,2.000000,4.000000,0.000000,33.333332,,,,,,,,,,,,,,,,,,,,,,,,,,,,,,,,
1698692529.004152,1698692529.005215,9.000000,0.000000,4184.102539,4201.025879,4187.692383,4205.641113,4229.743652,314.000000,0.000000,13.000000,,,,0.000000,2.000000,2.000000,2.000000,4.000000,0.000000,33.333332,,,,,,,,,,,,,,,,,,,,,,,,,,,,,,,,
1698692529.012032,1698692529.012996,10.000000,0.000000,4182.563965,4198.974121,4183.077148,4197.948730,4231.282227,450.000000,0.000000,13.000000,,,,0.000000,2.000000,2.000000,2.000000,4.000000,0.000000,33.333332,,,,,,,,,,,,,,,,,,,,,,,,,,,,,,,,
1698692529.019912,1698692529.020977,11.000000,0.000000,4158.461426,4178.461426,4152.820313,4166.666504,4231.794922,0.000000,0.000000,13.000000,,,,0.000000,2.000000,2.000000,2.000000,4.000000,0.000000,33.333332,,,,,,,,,,,,,,,,,,,,,,,,,,,,,,,,
1698692529.027793,1698692529.028959,12.000000,0.000000,4160.512695,4172.307617,4145.641113,4152.307617,4230.769043,450.000000,0.000000,13.000000,,,,0.000000,2.000000,2.000000,2.000000,4.000000,0.000000,33.333332,,,,,,,,,,,,,,,,,,,,,,,,,,,,,,,,
1698692529.035673,1698692529.036940,13.000000,0.000000,4160.000000,4166.153809,4146.153809,4156.410156,4232.820313,450.000000,0.000000,13.000000,,,,0.000000,2.000000,2.000000,2.000000,4.000000,0.000000,33.333332,1.000000,33.333332,2.000000,2.000000,2.000000,4.000000,0.000000,51.743324,17.421598,1.380426,1.130720,0.403019,6.055333,1.331750,1.509904,0.813020,0.585405,18.215311,6.799126,4.643264,1.004140,0.705781,3.939913,4.183628,3.158382,0.675978,0.736305,0.546514,1.028417,0.683716,0.167590,0.167960
1698692529.043553,1698692529.044922,14.000000,0.000000,4158.974121,4170.256348,4151.794922,4168.717773,4230.769043,450.000000,0.000000,13.000000,,,,0.000000,2.000000,2.000000,2.000000,4.000000,0.000000,33.333332,,,,,,,,,,,,,,,,,,,,,,,,,,,,,,,,
1698692529.051433,1698692529.052903,15.000000,0.000000,4159.487305,4162.051270,4143.589844,4151.282227,4231.282227,0.000000,0.000000,13.000000,,,,0.000000,2.000000,2.000000,2.000000,4.000000,0.000000,33.333332,,,,,,,,,,,,,,,,,,,,,,,,,,,,,,,,
1698692529.059313,1698692529.060885,16.000000,0.000000,4160.000000,4155.897461,4135.897461,4138.974121,4232.307617,0.000000,0.000000,13.000000,,,,0.000000,2.000000,2.000000,2.000000,4.000000,0.000000,33.333332,,,,,,,,,,,,,,,,,,,,,,,,,,,,,,,,
1698692529.067194,1698692529.068866,17.000000,0.000000,4168.717773,4168.205078,4147.179688,4168.717773,4226.153809,0.000000,0.000000,13.000000,,,,0.000000,2.000000,2.000000,2.000000,4.000000,0.000000,33.333332,,,,,,,,,,,,,,,,,,,,,,,,,,,,,,,,
1698692529.075074,1698692529.076847,18.000000,0.000000,4161.538574,4164.102539,4146.666504,4171.282227,4216.922852,0.000000,0.000000,13.000000,,,,0.000000,2.000000,2.000000,2.000000,4.000000,0.000000,33.333332,,,,,,,,,,,,,,,,,,,,,,,,,,,,,,,,
1698692529.082954,1698692529.084828,19.000000,0.000000,4162.051270,4168.205078,4155.897461,4164.615234,4217.948730,0.000000,0.000000,13.000000,,,,0.000000,2.000000,2.000000,2.000000,4.000000,0.000000,33.333332,,,,,,,,,,,,,,,,,,,,,,,,,,,,,,,,
1698692529.090835,1698692529.092809,20.000000,0.000000,4162.051270,4170.256348,4150.256348,4167.179688,4227.179688,0.000000,0.000000,13.000000,,,,0.000000,2.000000,2.000000,2.000000,4.000000,0.000000,33.333332,,,,,,,,,,,,,,,,,,,,,,,,,,,,,,,,
1698692529.098715,1698692529.100790,21.000000,0.000000,4147.692383,4151.794922,4114.871582,4150.769043,4233.846191,0.000000,0.000000,13.000000,,,,0.000000,2.000000,2.000000,2.000000,4.000000,0.000000,33.333332,,,,,,,,,,,,,,,,,,,,,,,,,,,,,,,,
1698692529.106595,1698692529.108771,22.000000,0.000000,4150.256348,4143.589844,4102.563965,4140.000000,4230.769043,0.000000,0.000000,13.000000,,,,0.000000,2.000000,2.000000,2.000000,4.000000,0.000000,33.333332,,,,,,,,,,,,,,,,,,,,,,,,,,,,,,,,
1698692529.114475,1698692529.116752,23.000000,0.000000,4148.717773,4139.487305,4116.922852,4136.410156,4221.538574,0.000000,0.000000,13.000000,,,,0.000000,2.000000,2.000000,2.000000,4.000000,0.000000,33.333332,,,,,,,,,,,,,,,,,,,,,,,,,,,,,,,,
1698692529.122356,1698692529.124733,24.000000,0.000000,4152.820313,4143.589844,4140.512695,4145.128418,4217.948730,0.000000,0.000000,13.000000,,,,0.000000,2.000000,2.000000,2.000000,4.000000,0.000000,33.333332,,,,,,,,,,,,,,,,,,,,,,,,,,,,,,,,
1698692529.130236,1698692529.132714,25.000000,0.000000,4152.307617,4139.487305,4129.743652,4150.769043,4217.948730,0.000000,0.000000,13.000000,,,,0.000000,2.000000,2.000000,2.000000,4.000000,0.000000,33.333332,,,,,,,,,,,,,,,,,,,,,,,,,,,,,,,,
1698692529.138116,1698692529.140695,26.000000,0.000000,4138.974121,4125.128418,4103.077148,4141.538574,4217.948730,0.000000,0.000000,13.000000,,,,0.000000,2.000000,2.000000,2.000000,4.000000,0.000000,33.333332,,,,,,,,,,,,,,,,,,,,,,,,,,,,,,,,
1698692529.145996,1698692529.148675,27.000000,0.000000,4166.666504,4155.897461,4132.307617,4157.948730,4224.615234,0.000000,0.000000,13.000000,,,,0.000000,2.000000,2.000000,2.000000,4.000000,0.000000,33.333332,,,,,,,,,,,,,,,,,,,,,,,,,,,,,,,,
1698692529.153876,1698692529.156656,28.000000,0.000000,4174.871582,4162.051270,4142.051270,4157.436035,4233.333496,0.000000,0.000000,13.000000,,,,0.000000,2.000000,2.000000,2.000000,4.000000,0.000000,33.333332,,,,,,,,,,,,,,,,,,,,,,,,,,,,,,,,
1698692529.161757,1698692529.164636,29.000000,0.000000,4156.922852,4141.538574,4116.922852,4142.563965,4234.358887,0.000000,0.000000,13.000000,,,,0.000000,2.000000,2.000000,2.000000,4.000000,0.000000,33.333332,,,,,,,,65.210838,20.222435,2.357951,1.274570,0.369646,5.718143,1.277595,1.267905,0.900343,0.517812,20.660023,7.076268,5.194225,1.209393,0.740617,3.774385,4.135251,3.742637,0.826511,0.718746,0.495976,1.077850,0.744375,0.180581,0.182697
1698692529.169637,1698692529.172617,30.000000,0.000000,4163.589844,4147.692383,4116.922852,4150.769043,4230.256348,0.000000,0.000000,13.000000,,,,0.000000,2.000000,2.000000,2.000000,4.000000,0.000000,33.333332,,,,,,,,,,,,,,,,,,,,,,,,,,,,,,,,
1698692529.177517,1698692529.180597,31.000000,0.000000,4166.666504,4149.743652,4117.436035,4147.692383,4232.307617,0.000000,0.000000,13.000000,,,,0.000000,2.000000,2.000000,2.000000,4.000000,0.000000,33.333332,,,,,,,,,,,,,,,,,,,,,,,,,,,,,,,,
1698692529.185398,1698692529.188578,32.000000,0.000000,4152.820313,4143.589844,4112.820313,4135.384766,4233.846191,0.000000,0.000000,13.000000,,,,0.000000,2.000000,2.000000,2.000000,4.000000,0.000000,33.333332,,,,,,,,,,,,,,,,,,,,,,,,,,,,,,,,
1698692529.193278,1698692529.196558,33.000000,0.000000,4132.820313,4147.692383,4113.846191,4128.717773,4225.128418,0.000000,0.000000,13.000000,,,,0.000000,2.000000,2.000000,2.000000,4.000000,0.000000,33.333332,,,,,,,,,,,,,,,,,,,,,,,,,,,,,,,,
1698692529.201158,1698692529.204538,34.000000,0.000000,4140.512695,4166.153809,4128.717773,4145.641113,4216.922852,0.000000,0.000000,13.000000,,,,0.000000,2.000000,2.000000,2.000000,4.000000,0.000000,33.333332,,,,,,,,,,,,,,,,,,,,,,,,,,,,,,,,
1698692529.209038,1698692529.212519,35.000000,0.000000,4142.051270,4157.948730,4128.717773,4155.897461,4217.948730,0.000000,0.000000,13.000000,,,,0.000000,2.000000,2.000000,2.000000,4.000000,0.000000,33.333332,,,,,,,,,,,,,,,,,,,,,,,,,,,,,,,,
1698692529.216919,1698692529.220299,36.000000,0.000000,4109.743652,4125.128418,4099.487305,4124.615234,4220.512695,0.000000,0.000000,13.000000,,,,0.000000,2.000000,2.000000,2.000000,4.000000,0.000000,33.333332,,,,,,,,,,,,,,,,,,,,,,,,,,,,,,,,
1698692529.224799,1698692529.228279,37.000000,0.000000,4104.102539,4123.077148,4094.871826,4115.897461,4217.948730,0.000000,0.000000,13.000000,,,,0.000000,2.000000,2.000000,2.000000,4.000000,0.000000,33.333332,,,,,,,,,,,,,,,,,,,,,,,,,,,,,,,,
1698692529.232679,1698692529.236260,38.000000,0.000000,4112.820313,4118.974121,4112.307617,4135.384766,4215.897461,0.000000,0.000000,13.000000,,,,0.000000,2.000000,2.000000,2.000000,4.000000,0.000000,33.333332,,,,,,,,,,,,,,,,,,,,,,,,,,,,,,,,
1698692529.240559,1698692529.244240,39.000000,0.000000,4117.436035,4121.025879,4134.871582,4147.692383,4218.974121,0.000000,0.000000,13.000000,,,,0.000000,2.000000,2.000000,2.000000,4.000000,0.000000,33.333332,,,,,,,,,,,,,,,,,,,,,,,,,,,,,,,,
1698692529.248440,1698692529.252220,40.000000,0.000000,4116.410156,4125.128418,4128.717773,4136.922852,4228.717773,0.000000,0.000000,13.000000,,,,0.000000,2.000000,2.000000,2.000000,4.000000,0.000000,33.333332,,,,,,,,,,,,,,,,,,,,,,,,,,,,,,,,
1698692529.256320,1698692529.260200,41.000000,0.000000,4101.538574,4104.615234,4095.384521,4119.487305,4235.384766,0.000000,0.000000,13.000000,,,,0.000000,2.000000,2.000000,2.000000,4.000000,0.000000,33.333332,,,,,,,,,,,,,,,,,,,,,,,,,,,,,,,,
1698692529.264200,1698692529.267980,42.000000,0.000000,4116.922852,4123.077148,4102.563965,4138.461426,4229.743652,0.000000,0.000000,13.000000,,,,0.000000,2.000000,2.000000,2.000000,4.000000,0.000000,33.333332,,,,,,,,,,,,,,,,,,,,,,,,,,,,,,,,
1698692529.272080,1698692529.275960,43.000000,0.000000,4122.563965,4143.589844,4108.205078,4135.897461,4229.230957,0.000000,0.000000,13.000000,,,,0.000000,2.000000,2.000000,2.000000,4.000000,0.000000,33.333332,,,,,,,,,,,,,,,,,,,,,,,,,,,,,,,,
1698692529.279961,1698692529.283741,44.000000,0.000000,4095.897461,4123.077148,4095.897461,4111.282227,4231.282227,0.000000,0.000000,13.000000,,,,0.000000,2.000000,2.000000,2.000000,4.000000,0.000000,33.333332,,,,,,,,,,,,,,,,,,,,,,,,,,,,,,,,
1698692529.287841,1698692529.291721,45.000000,0.000000,4101.538574,4121.025879,4110.256348,4126.153809,4225.128418,0.000000,0.000000,13.000000,,,,0.000000,2.000000,2.000000,2.000000,4.000000,0.000000,33.333332,,,,,,,,78.864670,22.202232,3.389056,1.432885,0.348165,5.772743,1.236434,1.198282,0.987442,0.466062,21.732750,6.743687,5.309165,1.439079,0.760187,3.409902,3.752651,4.257207,1.031022,0.704640,0.470685,1.029012,0.766013,0.191962,0.195221
1698692529.295721,1698692529.299501,46.000000,0.000000,4115.897461,4131.282227,4111.794922,4132.820313,4221.538574,0.000000,0.000000,13.000000,,,,0.000000,2.000000,2.000000,2.000000,4.000000,0.000000,33.333332,,,,,,,,,,,,,,,,,,,,,,,,,,,,,,,,
1698692529.303601,1698692529.307481,47.000000,0.000000,4120.000000,4129.230957,4109.230957,4134.358887,4222.563965,0.000000,0.000000,13.000000,,,,0.000000,2.000000,2.000000,2.000000,4.000000,0.000000,33.333332,,,,,,,,,,,,,,,,,,,,,,,,,,,,,,,,
1698692529.311482,1698692529.315262,48.000000,0.000000,4119.487305,4118.974121,4125.641113,4148.205078,4220.512695,0.000000,0.000000,13.000000,,,,0.000000,2.000000,2.000000,2.000000,4.000000,0.000000,33.333332,,,,,,,,,,,,,,,,,,,,,,,,,,,,,,,,
1698692529.319362,1698692529.323142,49.000000,0.000000,4124.615234,4127.179688,4152.820313,4164.102539,4217.436035,0.000000,0.000000,13.000000,,,,0.000000,2.000000,2.000000,2.000000,4.000000,0.000000,33.333332,,,,,,,,,,,,,,,,,,,,,,,,,,,,,,,,
1698692529.327242,1698692529.330922,50.000000,0.000000,4133.333496,4139.487305,4164.615234,4175.384766,4218.974121,0.000000,0.000000,13.000000,,,,0.000000,2.000000,2.000000,2.000000,4.000000,0.000000,33.333332,,,,,,,,,,,,,,,,,,,,,,,,,,,,,,,,
1698692529.335122,1698692529.338903,51.000000,0.000000,4113.333496,4116.922852,4135.384766,4152.820313,4220.512695,0.000000,0.000000,13.000000,,,,0.000000,2.000000,2.000000,2.000000,4.000000,0.000000,33.333332,,,,,,,,,,,,,,,,,,,,,,,,,,,,,,,,
1698692529.343003,1698692529.346883,52.000000,0.000000,4109.743652,4108.717773,4125.128418,4142.563965,4218.461426,0.000000,0.000000,13.000000,,,,0.000000,2.000000,2.000000,2.000000,4.000000,0.000000,33.333332,,,,,,,,,,,,,,,,,,,,,,,,,,,,,,,,
1698692529.350883,1698692529.354863,53.000000,0.000000,4116.922852,4114.871582,4129.230957,4149.743652,4221.538574,0.000000,0.000000,13.000000,,,,0.000000,2.000000,2.000000,2.000000,4.000000,0.000000,33.333332,,,,,,,,,,,,,,,,,,,,,,,,,,,,,,,,
1698692529.358763,1698692529.362844,54.000000,0.000000,4107.692383,4121.025879,4113.846191,4143.589844,4228.717773,0.000000,0.000000,13.000000,,,,0.000000,2.000000,2.000000,2.000000,4.000000,0.000000,33.333332,,,,,,,,,,,,,,,,,,,,,,,,,,,,,,,,
1698692529.366643,1698692529.370624,55.000000,0.000000,4116.922852,4135.384766,4108.717773,4148.717773,4234.871582,0.000000,0.000000,13.000000,,,,0.000000,2.000000,2.000000,2.000000,4.000000,0.000000,33.333332,,,,,,,,,,,,,,,,,,,,,,,,,,,,,,,,
1698692529.374524,1698692529.378404,56.000000,0.000000,4129.230957,4129.230957,4111.282227,4152.307617,4231.282227,0.000000,0.000000,13.000000,,,,0.000000,2.000000,2.000000,2.000000,4.000000,0.000000,33.333332,,,,,,,,,,,,,,,,,,,,,,,,,,,,,,,,
1698692529.382404,1698692529.386185,57.000000,0.000000,4142.051270,4131.282227,4131.282227,4159.487305,4222.051270,0.000000,0.000000,13.000000,,,,0.000000,2.000000,2.000000,2.000000,4.000000,0.000000,33.333332,,,,,,,,,,,,,,,,,,,,,,,,,,,,,,,,
1698692529.390284,1698692529.393965,58.000000,0.000000,4140.000000,4139.487305,4142.563965,4160.000000,4218.461426,0.000000,0.000000,13.000000,,,,0.000000,2.000000,2.000000,2.000000,4.000000,0.000000,33.333332,,,,,,,,,,,,,,,,,,,,,,,,,,,,,,,,
1698692529.398164,1698692529.401745,59.000000,0.000000,4124.615234,4131.282227,4128.717773,4149.743652,4219.487305,0.000000,0.000000,13.000000,,,,0.000000,2.000000,2.000000,2.000000,4.000000,0.000000,33.333332,,,,,,,,,,,,,,,,,,,,,,,,,,,,,,,,
1698692529.406045,1698692529.409525,60.000000,0.000000,4134.358887,4143.589844,4132.307617,4162.051270,4220.000000,0.000000,0.000000,13.000000,,,,0.000000,2.000000,2.000000,2.000000,4.000000,0.000000,33.333332,,,,,,,,,,,,,,,,,,,,,,,,,,,,,,,,
1698692529.413925,1698692529.417306,61.000000,0.000000,4128.205078,4139.487305,4133.846191,4151.794922,4218.974121,0.000000,0.000000,13.000000,,,,0.000000,2.000000,2.000000,2.000000,4.000000,0.000000,33.333332,,,,,,,,86.438889,22.281496,4.146548,1.566909,0.348166,6.261087,1.289575,1.316096,1.070279,0.438629,21.073862,5.970431,4.960753,1.632473,0.778089,2.979896,3.251491,4.540836,1.256549,0.696166,0.484594,0.902650,0.735684,0.199080,0.200700
1698692529.421805,1698692529.425086,62.000000,0.000000,4118.461426,4133.333496,4137.948730,4138.461426,4220.000000,0.000000,0.000000,13.000000,,,,0.000000,2.000000,2.000000,2.000000,4.000000,0.000000,33.333332,,,,,,,,,,,,,,,,,,,,,,,,,,,,,,,,
1698692529.429685,1698692529.432866,63.000000,0.000000,4125.128418,4143.589844,4144.102539,4152.307617,4220.000000,0.000000,0.000000,13.000000,,,,0.000000,2.000000,2.000000,2.000000,4.000000,0.000000,33.333332,,,,,,,,,,,,,,,,,,,,,,,,,,,,,,,,
1698692529.437566,1698692529.440647,64.000000,0.000000,4117.436035,4114.871582,4131.282227,4146.666504,4218.974121,450.000000,0.000000,13.000000,,,,0.000000,2.000000,2.000000,2.000000,4.000000,0.000000,33.333332,,,,,,,,,,,,,,,,,,,,,,,,,,,,,,,,
1698692529.445446,1698692529.448427,65.000000,0.000000,4127.179688,4104.615234,4133.846191,4146.153809,4218.974121,450.000000,0.000000,13.000000,,,,0.000000,2.000000,2.000000,2.000000,4.000000,0.000000,33.333332,,,,,,,,,,,,,,,,,,,,,,,,,,,,,,,,
1698692529.453326,1698692529.456207,66.000000,0.000000,4131.794922,4118.974121,4129.743652,4149.230957,4218.461426,325.000000,0.000000,13.000000,,,,0.000000,2.000000,2.000000,2.000000,4.000000,0.000000,33.333332,,,,,,,,,,,,,,,,,,,,,,,,,,,,,,,,
1698692529.461207,1698692529.463988,67.000000,0.000000,4127.179688,4121.025879,4118.974121,4147.692383,4220.000000,450.000000,0.000000,13.000000,,,,0.000000,2.000000,2.000000,2.000000,4.000000,0.000000,33.333332,,,,,,,,,,,,,,,,,,,,,,,,,,,,,,,,
1698692529.469087,1698692529.471768,68.000000,0.000000,4132.307617,4121.025879,4120.000000,4146.153809,4219.487305,251.000000,0.000000,13.000000,,,,0.000000,2.000000,2.000000,2.000000,4.000000,0.000000,33.333332,,,,,,,,,,,,,,,,,,,,,,,,,,,,,,,,
1698692529.476967,1698692529.479748,69.000000,0.000000,4119.487305,4110.769043,4123.077148,4129.743652,4216.922852,450.000000,0.000000,13.000000,,,,0.000000,2.000000,2.000000,2.000000,4.000000,0.000000,33.333332,,,,,,,,,,,,,,,,,,,,,,,,,,,,,,,,
1698692529.484847,1698692529.487728,70.000000,0.000000,4118.461426,4116.922852,4150.256348,4141.538574,4225.128418,258.000000,0.000000,13.000000,,,,0.000000,2.000000,2.000000,2.000000,4.000000,0.000000,33.333332,,,,,,,,,,,,,,,,,,,,,,,,,,,,,,,,
1698692529.492727,1698692529.495709,71.000000,0.000000,4124.102539,4127.179688,4162.051270,4154.358887,4232.820313,450.000000,0.000000,13.000000,,,,0.000000,2.000000,2.000000,2.000000,4.000000,0.000000,33.333332,,,,,,,,,,,,,,,,,,,,,,,,,,,,,,,,
1698692529.500608,1698692529.503489,72.000000,0.000000,4119.487305,4123.077148,4144.102539,4142.563965,4223.077148,450.000000,0.000000,13.000000,,,,0.000000,2.000000,2.000000,2.000000,4.000000,0.000000,33.333332,,,,,,,,,,,,,,,,,,,,,,,,,,,,,,,,
1698692529.508488,1698692529.511469,73.000000,0.000000,4113.846191,4123.077148,4133.333496,4141.025879,4214.871582,314.000000,0.000000,13.000000,,,,0.000000,2.000000,2.000000,2.000000,4.000000,0.000000,33.333332,,,,,,,,,,,,,,,,,,,,,,,,,,,,,,,,
1698692529.516368,1698692529.519250,74.000000,0.000000,4098.974121,4121.025879,4126.666504,4142.051270,4220.000000,450.000000,0.000000,13.000000,,,,0.000000,2.000000,2.000000,2.000000,4.000000,0.000000,33.333332,,,,,,,,,,,,,,,,,,,,,,,,,,,,,,,,
1698692529.524248,1698692529.527030,75.000000,0.000000,4112.307617,4129.230957,4137.948730,4145.128418,4221.025879,0.000000,0.000000,13.000000,,,,0.000000,2.000000,2.000000,2.000000,4.000000,0.000000,33.333332,,,,,,,,,,,,,,,,,,,,,,,,,,,,,,,,
1698692529.532129,1698692529.534810,76.000000,0.000000,4131.282227,4129.230957,4142.051270,4136.410156,4218.461426,450.000000,0.000000,13.000000,,,,0.000000,2.000000,2.000000,2.000000,4.000000,0.000000,33.333332,,,,,,,,,,,,,,,,,,,,,,,,,,,,,,,,
1698692529.540009,1698692529.542791,77.000000,0.000000,4140.000000,4116.922852,4137.436035,4134.871582,4220.000000,450.000000,0.000000,13.000000,,,,0.000000,2.000000,2.000000,2.000000,4.000000,0.000000,33.333332,1.000000,33.333332,2.000000,2.000000,2.000000,4.000000,0.000000,84.035591,20.151020,4.429981,1.624117,0.371837,7.006053,1.497743,1.573094,1.140533,0.436568,18.983232,5.041449,4.299597,1.742701,0.816471,2.536583,2.886155,4.523938,1.451180,0.695410,0.530166,0.753364,0.662457,0.202915,0.196505
1698692529.547889,1698692529.550571,78.000000,0.000000,4158.974121,4116.922852,4144.102539,4150.256348,4219.487305,450.000000,0.000000,13.000000,,,,0.000000,2.000000,2.000000,2.000000,4.000000,0.000000,33.333332,,,,,,,,,,,,,,,,,,,,,,,,,,,,,,,,
1698692529.555770,1698692529.558551,79.000000,0.000000,4154.358887,4116.922852,4135.897461,4137.948730,4220.000000,0.000000,0.000000,13.000000,,,,0.000000,2.000000,2.000000,2.000000,4.000000,0.000000,33.333332,,,,,,,,,,,,,,,,,,,,,,,,,,,,,,,,
1698692529.563650,1698692529.566532,80.000000,0.000000,4137.436035,4112.820313,4120.512695,4124.102539,4218.461426,450.000000,0.000000,13.000000,,,,0.000000,2.000000,2.000000,2.000000,4.000000,0.000000,33.333332,,,,,,,,,,,,,,,,,,,,,,,,,,,,,,,,
1698692529.571530,1698692529.574512,81.000000,0.000000,4113.846191,4077.948730,4090.256348,4098.974121,4218.461426,450.000000,0.000000,13.000000,,,,0.000000,2.000000,2.000000,2.000000,4.000000,0.000000,33.333332,,,,,,,,,,,,,,,,,,,,,,,,,,,,,,,,
1698692529.579410,1698692529.582492,82.000000,0.000000,4097.948730,4061.538574,4081.538574,4077.435791,4226.666504,450.000000,0.000000,13.000000,,,,0.000000,2.000000,2.000000,2.000000,4.000000,0.000000,33.333332,,,,,,,,,,,,,,,,,,,,,,,,,,,,,,,,
1698692529.587291,1698692529.590472,83.000000,0.000000,4120.512695,4100.512695,4122.563965,4111.282227,4226.666504,0.000000,0.000000,13.000000,,,,0.000000,2.000000,2.000000,2.000000,4.000000,0.000000,33.333332,,,,,,,,,,,,,,,,,,,,,,,,,,,,,,,,
1698692529.595171,1698692529.598253,84.000000,0.000000,4127.179688,4102.563965,4129.230957,4123.589844,4218.461426,450.000000,0.000000,13.000000,,,,0.000000,2.000000,2.000000,2.000000,4.000000,0.000000,33.333332,,,,,,,,,,,,,,,,,,,,,,,,,,,,,,,,
1698692529.603051,1698692529.606233,85.000000,0.000000,4124.615234,4104.615234,4122.051270,4105.641113,4217.436035,450.000000,0.000000,13.000000,,,,0.000000,2.000000,2.000000,2.000000,4.000000,0.000000,33.333332,,,,,,,,,,,,,,,,,,,,,,,,,,,,,,,,
1698692529.610931,1698692529.614013,86.000000,0.000000,4144.615234,4131.282227,4138.461426,4120.000000,4220.512695,450.000000,0.000000,13.000000,,,,0.000000,2.000000,2.000000,2.000000,4.000000,0.000000,33.333332,,,,,,,,,,,,,,,,,,,,,,,,,,,,,,,,
1698692529.618811,1698692529.621993,87.000000,0.000000,4168.717773,4137.436035,4154.871582,4155.897461,4218.461426,0.000000,0.000000,13.000000,,,,0.000000,2.000000,2.000000,2.000000,4.000000,0.000000,33.333332,,,,,,,,,,,,,,,,,,,,,,,,,,,,,,,,
1698692529.626692,1698692529.629773,88.000000,0.000000,4188.717773,4155.897461,4174.871582,4175.897461,4217.436035,450.000000,0.000000,13.000000,,,,0.000000,2.000000,2.000000,2.000000,4.000000,0.000000,33.333332,,,,,,,,,,,,,,,,,,,,,,,,,,,,,,,,
1698692529.634572,1698692529.637754,89.000000,0.000000,4170.256348,4170.256348,4176.410156,4156.410156,4220.000000,450.000000,0.000000,13.000000,,,,0.000000,2.000000,2.000000,2.000000,4.000000,0.000000,33.333332,,,,,,,,,,,,,,,,,,,,,,,,,,,,,,,,
1698692529.642452,1698692529.645534,90.000000,0.000000,4162.051270,4166.153809,4178.461426,4162.563965,4220.000000,450.000000,0.000000,13.000000,,,,0.000000,2.000000,2.000000,2.000000,4.000000,0.000000,33.333332,,,,,,,,,,,,,,,,,,,,,,,,,,,,,,,,
1698692529.650333,1698692529.653314,91.000000,0.000000,4169.743652,4151.794922,4182.563965,4180.000000,4218.974121,0.000000,0.000000,13.000000,,,,0.000000,2.000000,2.000000,2.000000,4.000000,0.000000,33.333332,,,,,,,,,,,,,,,,,,,,,,,,,,,,,,,,
1698692529.658213,1698692529.661094,92.000000,0.000000,4143.077148,4137.436035,4166.153809,4152.820313,4216.922852,450.000000,0.000000,13.000000,,,,0.000000,2.000000,2.000000,2.000000,4.000000,0.000000,33.333332,,,,,,,,,,,,,,,,,,,,,,,,,,,,,,,,
1698692529.666093,1698692529.669075,93.000000,0.000000,4135.897461,4149.743652,4160.512695,4145.641113,4220.000000,450.000000,0.000000,13.000000,,,,0.000000,2.000000,2.000000,2.000000,4.000000,0.000000,33.333332,,,,,,,,71.748039,16.266411,4.200700,1.567192,0.413771,7.632022,1.858469,1.857527,1.180781,0.455670,15.974772,4.281599,3.582219,1.762459,0.889909,2.295679,2.773690,4.228816,1.563672,0.702763,0.579482,0.643968,0.567684,0.206083,0.183611
1698692529.673973,1698692529.676855,94.000000,0.000000,4147.692383,4145.641113,4158.974121,4155.384766,4218.461426,450.000000,0.000000,13.000000,,,,0.000000,2.000000,2.000000,2.000000,4.000000,0.000000,33.333332,,,,,,,,,,,,,,,,,,,,,,,,,,,,,,,,
1698692529.681854,1698692529.684835,95.000000,0.000000,4159.487305,4135.384766,4167.692383,4151.282227,4218.461426,0.000000,0.000000,13.000000,,,,0.000000,2.000000,2.000000,2.000000,4.000000,0.000000,33.333332,,,,,,,,,,,,,,,,,,,,,,,,,,,,,,,,
1698692529.689734,1698692529.692615,96.000000,0.000000,4167.179688,4141.538574,4161.538574,4141.025879,4228.717773,450.000000,0.000000,13.000000,,,,0.000000,2.000000,2.000000,2.000000,4.000000,0.000000,33.333332,,,,,,,,,,,,,,,,,,,,,,,,,,,,,,,,
1698692529.697614,1698692529.700396,97.000000,0.000000,4166.153809,4147.692383,4136.410156,4140.512695,4229.230957,450.000000,0.000000,13.000000,,,,0.000000,2.000000,2.000000,2.000000,4.000000,0.000000,33.333332,,,,,,,,,,,,,,,,,,,,,,,,,,,,,,,,
1698692529.705494,1698692529.708176,98.000000,0.000000,4172.307617,4153.846191,4137.948730,4156.922852,4218.461426,450.000000,0.000000,13.000000,,,,0.000000,2.000000,2.000000,2.000000,4.000000,0.000000,33.333332,,,,,,,,,,,,,,,,,,,,,,,,,,,,,,,,
1698692529.713375,1698692529.715956,99.000000,0.000000,4152.307617,4135.384766,4132.820313,4141.025879,4216.410156,0.000000,0.000000,13.000000,,,,0.000000,2.000000,2.000000,2.000000,4.000000,0.000000,33.333332,,,,,,,,,,,,,,,,,,,,,,,,,,,,,,,,
1698692529.721255,1698692529.723737,100.000000,0.000000,4139.487305,4137.436035,4135.384766,4131.282227,4220.000000,450.000000,0.000000,13.000000,,,,0.000000,2.000000,2.000000,2.000000,4.000000,0.000000,33.333332,,,,,,,,,,,,,,,,,,,,,,,,,,,,,,,,
1698692529.729135,1698692529.731517,101.000000,0.000000,4156.922852,4164.102539,4161.538574,4165.128418,4217.948730,450.000000,0.000000,13.000000,,,,0.000000,2.000000,2.000000,2.000000,4.000000,0.000000,33.333332,,,,,,,,,,,,,,,,,,,,,,,,,,,,,,,,
1698692529.737015,1698692529.739297,102.000000,0.000000,4156.922852,4155.897461,4167.692383,4177.436035,4217.436035,450.000000,0.000000,13.000000,,,,0.000000,2.000000,2.000000,2.000000,4.000000,0.000000,33.333332,,,,,,,,,,,,,,,,,,,,,,,,,,,,,,,,
1698692529.744896,1698692529.747078,103.000000,0.000000,4151.794922,4143.589844,4167.692383,4160.512695,4218.974121,0.000000,0.000000,13.000000,,,,0.000000,2.000000,2.000000,2.000000,4.000000,0.000000,33.333332,,,,,,,,,,,,,,,,,,,,,,,,,,,,,,,,
1698692529.752776,1698692529.754858,104.000000,0.000000,4138.974121,4137.436035,4157.436035,4137.948730,4217.436035,450.000000,0.000000,13.000000,,,,0.000000,2.000000,2.000000,2.000000,4.000000,0.000000,33.333332,,,,,,,,,,,,,,,,,,,,,,,,,,,,,,,,
1698692529.760656,1698692529.762638,105.000000,0.000000,4132.307617,4137.436035,4145.641113,4141.538574,4217.436035,450.000000,0.000000,13.000000,,,,0.000000,2.000000,2.000000,2.000000,4.000000,0.000000,33.333332,,,,,,,,,,,,,,,,,,,,,,,,,,,,,,,,
1698692529.768536,1698692529.770418,106.000000,0.000000,4148.205078,4143.589844,4151.794922,4166.153809,4217.948730,450.000000,0.000000,13.000000,,,,0.000000,2.000000,2.000000,2.000000,4.000000,0.000000,33.333332,,,,,,,,,,,,,,,,,,,,,,,,,,,,,,,,
1698692529.776417,1698692529.778399,107.000000,0.000000,4145.641113,4133.333496,4146.153809,4156.410156,4217.436035,0.000000,0.000000,13.000000,,,,0.000000,2.000000,2.000000,2.000000,4.000000,0.000000,33.333332,,,,,,,,,,,,,,,,,,,,,,,,,,,,,,,,
1698692529.784297,1698692529.786379,108.000000,0.000000,4148.717773,4145.641113,4144.102539,4148.205078,4217.436035,450.000000,0.000000,13.000000,,,,0.000000,2.000000,2.000000,2.000000,4.000000,0.000000,33.333332,,,,,,,,,,,,,,,,,,,,,,,,,,,,,,,,
1698692529.792177,1698692529.794359,109.000000,0.000000,4156.410156,4164.102539,4148.717773,4154.358887,4217.948730,450.000000,0.000000,13.000000,,,,0.000000,2.000000,2.000000,2.000000,4.000000,0.000000,33.333332,,,,,,,,52.905884,11.695028,3.600727,1.401692,0.462677,7.929530,2.355463,2.051902,1.175054,0.492001,12.893113,3.901398,3.037791,1.725955,0.994110,2.303985,2.858067,3.758828,1.562104,0.719065,0.599725,0.615957,0.477200,0.210331,0.165716
1698692529.800057,1698692529.802339,110.000000,0.000000,4158.974121,4166.153809,4150.256348,4158.974121,4217.436035,450.000000,0.000000,13.000000,,,,0.000000,2.000000,2.000000,2.000000,4.000000,0.000000,33.333332,,,,,,,,,,,,,,,,,,,,,,,,,,,,,,,,
1698692529.807938,1698692529.810320,111.000000,0.000000,4162.563965,4162.051270,4155.897461,4167.179688,4217.436035,0.000000,0.000000,13.000000,,,,0.000000,2.000000,2.000000,2.000000,4.000000,0.000000,33.333332,,,,,,,,,,,,,,,,,,,,,,,,,,,,,,,,
1698692529.815818,1698692529.818300,112.000000,0.000000,4147.692383,4139.487305,4148.717773,4155.384766,4218.974121,450.000000,0.000000,13.000000,,,,0.000000,2.000000,2.000000,2.000000,4.000000,0.000000,33.333332,,,,,,,,,,,,,,,,,,,,,,,,,,,,,,,,
1698692529.823698,1698692529.826080,113.000000,0.000000,4141.025879,4137.436035,4151.282227,4154.358887,4220.512695,450.000000,0.000000,13.000000,,,,0.000000,2.000000,2.000000,2.000000,4.000000,0.000000,33.333332,,,,,,,,,,,,,,,,,,,,,,,,,,,,,,,,
1698692529.831578,1698692529.833860,114.000000,0.000000,4128.205078,4149.743652,4147.692383,4157.948730,4220.000000,450.000000,0.000000,13.000000,,,,0.000000,2.000000,2.000000,2.000000,4.000000,0.000000,33.333332,,,,,,,,,,,,,,,,,,,,,,,,,,,,,,,,
1698692529.839459,1698692529.841841,115.000000,0.000000,4118.461426,4147.692383,4133.333496,4149.743652,4218.974121,0.000000,0.000000,13.000000,,,,0.000000,2.000000,2.000000,2.000000,4.000000,0.000000,33.333332,,,,,,,,,,,,,,,,,,,,,,,,,,,,,,,,
1698692529.847339,1698692529.849621,116.000000,0.000000,4147.692383,4153.846191,4143.077148,4175.384766,4219.487305,450.000000,0.000000,13.000000,,,,0.000000,2.000000,2.000000,2.000000,4.000000,0.000000,33.333332,,,,,,,,,,,,,,,,,,,,,,,,,,,,,,,,
1698692529.855219,1698692529.857601,117.000000,0.000000,4154.358887,4157.948730,4148.717773,4202.051270,4219.487305,450.000000,0.000000,13.000000,,,,0.000000,2.000000,2.000000,2.000000,4.000000,0.000000,33.333332,,,,,,,,,,,,,,,,,,,,,,,,,,,,,,,,
1698692529.863099,1698692529.865382,118.000000,0.000000,4145.128418,4166.153809,4181.538574,4204.102539,4218.974121,450.000000,0.000000,13.000000,,,,0.000000,2.000000,2.000000,2.000000,4.000000,0.000000,33.333332,,,,,,,,,,,,,,,,,,,,,,,,,,,,,,,,
1698692529.870980,1698692529.873362,119.000000,0.000000,4138.974121,4157.948730,4239.487305,4195.384766,4220.000000,0.000000,0.000000,13.000000,,,,0.000000,2.000000,2.000000,2.000000,4.000000,0.000000,33.333332,,,,,,,,,,,,,,,,,,,,,,,,,,,,,,,,
1698692529.878860,1698692529.881142,120.000000,0.000000,4117.948730,4133.333496,4260.512695,4184.615234,4218.974121,450.000000,0.000000,13.000000,,,,0.000000,2.000000,2.000000,2.000000,4.000000,0.000000,33.333332,,,,,,,,,,,,,,,,,,,,,,,,,,,,,,,,
1698692529.886740,1698692529.889122,121.000000,0.000000,4132.820313,4155.897461,4272.307617,4201.025879,4217.948730,450.000000,0.000000,13.000000,,,,0.000000,2.000000,2.000000,2.000000,4.000000,0.000000,33.333332,,,,,,,,,,,,,,,,,,,,,,,,,,,,,,,,
1698692529.894621,1698692529.896903,122.000000,0.000000,4132.820313,4164.102539,4253.846191,4188.205078,4223.589844,450.000000,0.000000,13.000000,,,,0.000000,2.000000,2.000000,2.000000,4.000000,0.000000,33.333332,,,,,,,,,,,,,,,,,,,,,,,,,,,,,,,,
1698692529.902501,1698692529.904883,123.000000,0.000000,4082.051270,4118.974121,4201.538574,4141.538574,4224.615234,0.000000,0.000000,13.000000,,,,0.000000,2.000000,2.000000,2.000000,4.000000,0.000000,33.333332,,,,,,,,,,,,,,,,,,,,,,,,,,,,,,,,
1698692529.910381,1698692529.912663,124.000000,0.000000,4084.615479,4106.666504,4205.128418,4155.384766,4218.974121,450.000000,0.000000,13.000000,,,,0.000000,2.000000,2.000000,2.000000,4.000000,0.000000,33.333332,,,,,,,,,,,,,,,,,,,,,,,,,,,,,,,,
1698692529.918261,1698692529.920643,125.000000,0.000000,4151.794922,4160.000000,4270.769043,4231.282227,4216.922852,450.000000,0.000000,13.000000,,,,0.000000,2.000000,2.000000,2.000000,4.000000,0.000000,33.333332,,,,,,,,33.093449,7.534419,3.011586,1.180229,0.506733,7.721861,2.990408,2.090691,1.116446,0.542601,10.146393,3.897199,2.761172,1.691375,1.103071,2.627925,3.011875,3.258209,1.457623,0.749561,0.573253,0.666901,0.408187,0.214129,0.147069
1698692529.926141,1698692529.928423,126.000000,0.000000,4182.563965,4198.974121,4304.102539,4265.128418,4218.461426,450.000000,0.000000,13.000000,,,,0.000000,2.000000,2.000000,2.000000,4.000000,0.000000,33.333332,,,,,,,,,,,,,,,,,,,,,,,,,,,,,,,,
1698692529.934022,1698692529.936404,127.000000,0.000000,4137.436035,4149.743652,4267.179688,4215.384766,4217.948730,227.000000,0.000000,13.000000,,,,0.000000,2.000000,2.000000,2.000000,4.000000,0.000000,33.333332,,,,,,,,,,,,,,,,,,,,,,,,,,,,,,,,
1698692529.941902,1698692529.944184,0.000000,0.000000,4121.538574,4118.974121,4254.358887,4203.077148,4217.948730,450.000000,0.000000,13.000000,,,,0.000000,2.000000,2.000000,2.000000,4.000000,0.000000,33.333332,,,,,,,,,,,,,,,,,,,,,,,,,,,,,,,,
1698692529.949782,1698692529.952164,1.000000,0.000000,4134.871582,4131.282227,4262.563965,4224.102539,4218.461426,450.000000,0.000000,13.000000,,,,0.000000,2.000000,2.000000,2.000000,4.000000,0.000000,33.333332,,,,,,,,,,,,,,,,,,,,,,,,,,,,,,,,
1698692529.957662,1698692529.959944,2.000000,0.000000,4116.410156,4114.871582,4245.128418,4196.410156,4217.948730,1023.000000,0.000000,13.000000,,,,0.000000,4.000000,2.000000,2.000000,4.000000,0.000000,33.333332,,,,,,,,,,,,,,,,,,,,,,,,,,,,,,,,
1698692529.965543,1698692529.967924,3.000000,0.000000,4117.948730,4110.769043,4243.589844,4189.230957,4219.487305,450.000000,0.000000,13.000000,,,,0.000000,4.000000,2.000000,2.000000,4.000000,0.000000,33.333332,,,,,,,,,,,,,,,,,,,,,,,,,,,,,,,,
1698692529.973423,1698692529.975705,4.000000,0.000000,4116.410156,4106.666504,4230.256348,4192.820313,4219.487305,1023.000000,0.000000,13.000000,,,,0.000000,4.000000,4.000000,2.000000,4.000000,0.000000,50.000000,,,,,,,,,,,,,,,,,,,,,,,,,,,,,,,,
1698692529.981303,1698692529.983685,5.000000,0.000000,4104.102539,4104.615234,4220.000000,4185.128418,4218.974121,450.000000,0.000000,13.000000,,,,0.000000,4.000000,4.000000,2.000000,4.000000,0.000000,50.000000,,,,,,,,,,,,,,,,,,,,,,,,,,,,,,,,
1698692529.989184,1698692529.991665,6.000000,0.000000,4095.897461,4108.717773,4216.410156,4183.589844,4218.974121,309.000000,0.000000,13.000000,,,,0.000000,4.000000,4.000000,2.000000,4.000000,0.000000,50.000000,,,,,,,,,,,,,,,,,,,,,,,,,,,,,,,,
1698692529.997064,1698692529.999546,7.000000,0.000000,4071.794922,4086.153809,4191.794922,4167.692383,4219.487305,450.000000,0.000000,13.000000,,,,0.000000,4.000000,4.000000,2.000000,4.000000,0.000000,50.000000,,,,,,,,,,,,,,,,,,,,,,,,,,,,,,,,
1698692530.004944,1698692530.007326,8.000000,0.000000,4077.435791,4063.589844,4196.922852,4171.794922,4218.974121,450.000000,0.000000,13.000000,,,,0.000000,4.000000,4.000000,2.000000,4.000000,0.000000,50.000000,,,,,,,,,,,,,,,,,,,,,,,,,,,,,,,,
1698692530.012824,1698692530.015106,9.000000,0.000000,4087.179443,4028.718018,4210.769043,4178.461426,4218.974121,312.000000,0.000000,13.000000,,,,0.000000,4.000000,4.000000,2.000000,4.000000,0.000000,50.000000,,,,,,,,,,,,,,,,,,,,,,,,,,,,,,,,
1698692530.020705,1698692530.022887,10.000000,0.000000,4073.333252,3989.743652,4206.153809,4169.230957,4218.974121,450.000000,0.000000,13.000000,,,,0.000000,4.000000,4.000000,2.000000,4.000000,0.000000,50.000000,,,,,,,,,,,,,,,,,,,,,,,,,,,,,,,,
1698692530.028585,1698692530.030667,11.000000,0.000000,4068.205078,3977.435791,4201.538574,4169.230957,4218.974121,0.000000,0.000000,13.000000,,,,0.000000,4.000000,4.000000,2.000000,4.000000,0.000000,50.000000,,,,,,,,,,,,,,,,,,,,,,,,,,,,,,,,
1698692530.036465,1698692530.038447,12.000000,0.000000,4064.615479,3956.923096,4191.794922,4162.563965,4218.974121,450.000000,0.000000,13.000000,,,,0.000000,4.000000,4.000000,2.000000,4.000000,0.000000,50.000000,,,,,,,,,,,,,,,,,,,,,,,,,,,,,,,,
1698692530.044345,1698692530.046228,13.000000,0.000000,4070.256348,3954.871826,4199.487305,4169.230957,4218.974121,450.000000,0.000000,13.000000,,,,0.000000,4.000000,4.000000,2.000000,4.000000,0.000000,50.000000,1.000000,33.333332,2.000000,2.000000,2.000000,4.000000,0.000000,17.290419,4.602498,2.827477,0.984057,0.540394,7.273714,3.736331,1.976893,1.018039,0.604437,8.355156,4.182039,2.737088,1.716859,1.180156,3.234447,3.149438,2.813990,1.292718,0.802871,0.499883,0.755757,0.362785,0.213610,0.130790
1698692530.052225,1698692530.054008,14.000000,0.000000,4071.281982,3967.179443,4206.153809,4190.256348,4218.974121,450.000000,0.000000,13.000000,,,,0.000000,4.000000,4.000000,2.000000,4.000000,0.000000,50.000000,,,,,,,,,,,,,,,,,,,,,,,,,,,,,,,,
1698692530.060106,1698692530.061788,15.000000,0.000000,4074.871826,3977.435791,4211.282227,4211.794922,4218.974121,0.000000,0.000000,13.000000,,,,0.000000,4.000000,4.000000,2.000000,4.000000,0.000000,50.000000,,,,,,,,,,,,,,,,,,,,,,,,,,,,,,,,
1698692530.067986,1698692530.069568,16.000000,0.000000,4079.487061,3969.230713,4215.897461,4211.794922,4218.974121,0.000000,0.000000,13.000000,,,,0.000000,4.000000,4.000000,2.000000,4.000000,0.000000,50.000000,,,,,,,,,,,,,,,,,,,,,,,,,,,,,,,,
1698692530.075866,1698692530.077349,17.000000,0.000000,4041.538574,3928.205078,4182.563965,4167.179688,4218.974121,0.000000,0.000000,13.000000,,,,0.000000,4.000000,4.000000,2.000000,4.000000,0.000000,50.000000,,,,,,,,,,,,,,,,,,,,,,,,,,,,,,,,
1698692530.083747,1698692530.085129,18.000000,0.000000,4030.769287,3924.102539,4170.256348,4153.846191,4218.974121,0.000000,0.000000,13.000000,,,,0.000000,4.000000,4.000000,2.000000,4.000000,0.000000,50.000000,,,,,,,,,,,,,,,,,,,,,,,,,,,,,,,,
1698692530.091627,1698692530.093109,19.000000,0.000000,4047.692383,3944.615479,4170.769043,4159.487305,4218.974121,0.000000,0.000000,13.000000,,,,0.000000,4.000000,4.000000,2.000000,4.000000,0.000000,50.000000,,,,,,,,,,,,,,,,,,,,,,,,,,,,,,,,
1698692530.099507,1698692530.101090,20.000000,0.000000,4024.102539,3928.205078,4138.974121,4139.487305,4218.974121,0.000000,0.000000,13.000000,,,,0.000000,4.000000,4.000000,2.000000,4.000000,0.000000,50.000000,,,,,,,,,,,,,,,,,,,,,,,,,,,,,,,,
1698692530.107387,1698692530.109070,21.000000,0.000000,4018.461426,3932.307617,4136.410156,4153.333496,4218.974121,0.000000,0.000000,13.000000,,,,0.000000,4.000000,4.000000,2.000000,4.000000,0.000000,50.000000,,,,,,,,,,,,,,,,,,,,,,,,,,,,,,,,
1698692530.115268,1698692530.117050,22.000000,0.000000,4043.076904,3952.820557,4167.179688,4183.077148,4218.974121,0.000000,0.000000,13.000000,,,,0.000000,4.000000,4.000000,2.000000,4.000000,0.000000,50.000000,,,,,,,,,,,,,,,,,,,,,,,,,,,,,,,,
1698692530.123148,1698692530.125030,23.000000,0.000000,4055.384521,3963.076904,4187.179688,4193.333496,4218.974121,0.000000,0.000000,13.000000,,,,0.000000,4.000000,4.000000,2.000000,4.000000,0.000000,50.000000,,,,,,,,,,,,,,,,,,,,,,,,,,,,,,,,
1698692530.131028,1698692530.133010,24.000000,0.000000,4045.641113,3963.076904,4177.948730,4196.410156,4218.974121,0.000000,0.000000,13.000000,,,,0.000000,4.000000,4.000000,2.000000,4.000000,0.000000,50.000000,,,,,,,,,,,,,,,,,,,,,,,,,,,,,,,,
1698692530.138908,1698692530.140791,25.000000,0.000000,4038.974365,3965.128174,4171.794922,4201.025879,4219.487305,0.000000,0.000000,13.000000,,,,0.000000,4.000000,4.000000,2.000000,4.000000,0.000000,50.000000,,,,,,,,,,,,,,,,,,,,,,,,,,,,,,,,
1698692530.146789,1698692530.148571,26.000000,0.000000,4044.102539,3965.128174,4175.897461,4200.512695,4218.974121,0.000000,0.000000,13.000000,,,,0.000000,4.000000,4.000000,2.000000,4.000000,0.000000,50.000000,,,,,,,,,,,,,,,,,,,,,,,,,,,,,,,,
1698692530.154669,1698692530.156551,27.000000,0.000000,4021.025635,3944.615479,4148.717773,4174.358887,4218.974121,0.000000,0.000000,13.000000,,,,0.000000,4.000000,4.000000,2.000000,4.000000,0.000000,50.000000,,,,,,,,,,,,,,,,,,,,,,,,,,,,,,,,
1698692530.162549,1698692530.164332,28.000000,0.000000,4020.000000,3971.281982,4146.153809,4177.948730,4219.487305,0.000000,0.000000,13.000000,,,,0.000000,4.000000,4.000000,2.000000,4.000000,0.000000,50.000000,,,,,,,,,,,,,,,,,,,,,,,,,,,,,,,,
1698692530.170429,1698692530.172312,29.000000,0.000000,4027.692383,4002.051270,4163.077148,4187.692383,4218.974121,0.000000,0.000000,13.000000,,,,0.000000,4.000000,4.000000,2.000000,4.000000,0.000000,50.000000,,,,,,,,8.162576,3.129985,3.271172,0.897084,0.577507,6.730663,4.517818,1.814368,0.918403,0.682284,7.833286,4.615439,2.953288,1.869105,1.201153,3.994736,3.297781,2.539165,1.143884,0.897964,0.395912,0.821912,0.328397,0.205632,0.118004
1698692530.178310,1698692530.180092,30.000000,0.000000,3976.410156,3946.666748,4126.153809,4136.410156,4217.948730,0.000000,0.000000,13.000000,,,,0.000000,4.000000,4.000000,2.000000,4.000000,0.000000,50.000000,,,,,,,,,,,,,,,,,,,,,,,,,,,,,,,,
1698692530.186190,1698692530.188072,31.000000,0.000000,3953.846191,3909.743652,4103.077148,4118.974121,4217.436035,0.000000,0.000000,13.000000,,,,0.000000,4.000000,4.000000,2.000000,4.000000,0.000000,50.000000,,,,,,,,,,,,,,,,,,,,,,,,,,,,,,,,
1698692530.194070,1698692530.195853,32.000000,0.000000,3979.487061,3932.307617,4121.538574,4158.461426,4217.948730,0.000000,0.000000,13.000000,,,,0.000000,4.000000,4.000000,2.000000,4.000000,0.000000,50.000000,,,,,,,,,,,,,,,,,,,,,,,,,,,,,,,,
1698692530.201950,1698692530.203833,33.000000,0.000000,3992.820557,3948.718018,4140.512695,4187.179688,4218.461426,0.000000,0.000000,13.000000,,,,0.000000,4.000000,4.000000,2.000000,4.000000,0.000000,50.000000,,,,,,,,,,,,,,,,,,,,,,,,,,,,,,,,
1698692530.209831,1698692530.211613,34.000000,0.000000,3995.897461,3952.820557,4157.948730,4199.487305,4218.974121,0.000000,0.000000,13.000000,,,,0.000000,4.000000,4.000000,2.000000,4.000000,0.000000,50.000000,,,,,,,,,,,,,,,,,,,,,,,,,,,,,,,,
1698692530.217711,1698692530.219593,35.000000,0.000000,3989.230713,3936.410156,4151.794922,4190.256348,4219.487305,0.000000,0.000000,13.000000,,,,0.000000,4.000000,4.000000,2.000000,4.000000,0.000000,50.000000,,,,,,,,,,,,,,,,,,,,,,,,,,,,,,,,
1698692530.225591,1698692530.227374,36.000000,0.000000,3972.307617,3920.000000,4124.615234,4171.282227,4218.974121,0.000000,0.000000,13.000000,,,,0.000000,4.000000,4.000000,2.000000,4.000000,0.000000,50.000000,,,,,,,,,,,,,,,,,,,,,,,,,,,,,,,,
1698692530.233472,1698692530.235354,37.000000,0.000000,3942.564209,3922.051270,4101.025879,4144.102539,4217.948730,0.000000,0.000000,13.000000,,,,0.000000,4.000000,4.000000,2.000000,4.000000,0.000000,50.000000,,,,,,,,,,,,,,,,,,,,,,,,,,,,,,,,
1698692530.241352,1698692530.243134,38.000000,0.000000,3932.307617,3946.666748,4102.051270,4117.436035,4217.948730,0.000000,0.000000,13.000000,,,,0.000000,4.000000,4.000000,2.000000,4.000000,0.000000,50.000000,,,,,,,,,,,,,,,,,,,,,,,,,,,,,,,,
1698692530.249232,1698692530.251114,39.000000,0.000000,3948.718018,3965.128174,4103.589844,4102.051270,4218.461426,0.000000,0.000000,13.000000,,,,0.000000,4.000000,4.000000,2.000000,4.000000,0.000000,50.000000,,,,,,,,,,,,,,,,,,,,,,,,,,,,,,,,
1698692530.257112,1698692530.258894,40.000000,0.000000,3915.384521,3928.205078,4062.564209,4069.230713,4218.974121,0.000000,0.000000,13.000000,,,,0.000000,4.000000,4.000000,2.000000,4.000000,0.000000,50.000000,,,,,,,,,,,,,,,,,,,,,,,,,,,,,,,,
1698692530.264992,1698692530.266875,41.000000,0.000000,3888.718018,3911.794922,4056.410156,4083.589844,4218.461426,0.000000,0.000000,13.000000,,,,0.000000,4.000000,4.000000,2.000000,4.000000,0.000000,50.000000,,,,,,,,,,,,,,,,,,,,,,,,,,,,,,,,
1698692530.272873,1698692530.274655,42.000000,0.000000,3957.948730,3963.076904,4136.410156,4189.743652,4217.948730,0.000000,0.000000,13.000000,,,,0.000000,4.000000,4.000000,2.000000,4.000000,0.000000,50.000000,,,,,,,,,,,,,,,,,,,,,,,,,,,,,,,,
1698692530.280753,1698692530.282635,43.000000,0.000000,4053.846191,4024.615479,4231.282227,4296.922852,4218.461426,0.000000,0.000000,13.000000,,,,0.000000,4.000000,4.000000,2.000000,4.000000,0.000000,50.000000,,,,,,,,,,,,,,,,,,,,,,,,,,,,,,,,
1698692530.288633,1698692530.290415,44.000000,0.000000,4053.333252,4020.512939,4239.487305,4304.102539,4219.487305,0.000000,0.000000,13.000000,,,,0.000000,4.000000,4.000000,2.000000,4.000000,0.000000,50.000000,,,,,,,,,,,,,,,,,,,,,,,,,,,,,,,,
1698692530.296513,1698692530.298395,45.000000,0.000000,3991.794922,3969.230713,4174.358887,4248.205078,4218.974121,0.000000,0.000000,13.000000,,,,0.000000,4.000000,4.000000,2.000000,4.000000,0.000000,50.000000,,,,,,,,4.611464,2.764246,4.246650,0.967824,0.648610,7.010596,5.243256,1.791175,0.883042,0.790653,9.113208,5.129665,3.444315,2.205193,1.169131,4.914483,3.581336,2.554334,1.096938,1.054991,0.283056,0.815141,0.292395,0.188734,0.107799
1698692530.304394,1698692530.306176,46.000000,0.000000,3977.948730,3958.974365,4141.538574,4231.282227,4218.974121,0.000000,0.000000,13.000000,,,,0.000000,4.000000,4.000000,2.000000,4.000000,0.000000,50.000000,,,,,,,,,,,,,,,,,,,,,,,,,,,,,,,,
1698692530.312274,1698692530.313956,47.000000,0.000000,3949.230713,3944.615479,4118.974121,4201.025879,4218.974121,0.000000,0.000000,13.000000,,,,0.000000,4.000000,4.000000,2.000000,4.000000,0.000000,50.000000,,,,,,,,,,,,,,,,,,,,,,,,,,,,,,,,
1698692530.320154,1698692530.321736,48.000000,0.000000,3914.358887,3930.256348,4105.641113,4165.128418,4218.974121,0.000000,0.000000,13.000000,,,,0.000000,4.000000,4.000000,2.000000,4.000000,0.000000,50.000000,,,,,,,,,,,,,,,,,,,,,,,,,,,,,,,,
1698692530.328035,1698692530.329716,49.000000,0.000000,3934.871826,3958.974365,4119.487305,4174.871582,4218.974121,0.000000,0.000000,13.000000,,,,0.000000,4.000000,4.000000,2.000000,4.000000,0.000000,50.000000,,,,,,,,,,,,,,,,,,,,,,,,,,,,,,,,
1698692530.335915,1698692530.337497,50.000000,0.000000,3926.666748,3956.923096,4104.102539,4151.794922,4218.974121,0.000000,0.000000,13.000000,,,,0.000000,4.000000,4.000000,2.000000,4.000000,0.000000,50.000000,,,,,,,,,,,,,,,,,,,,,,,,,,,,,,,,
1698692530.343795,1698692530.345477,51.000000,0.000000,3913.333252,3946.666748,4110.256348,4138.974121,4218.974121,0.000000,0.000000,13.000000,,,,0.000000,4.000000,4.000000,2.000000,4.000000,0.000000,50.000000,,,,,,,,,,,,,,,,,,,,,,,,,,,,,,,,
1698692530.351675,1698692530.353257,52.000000,0.000000,3916.923096,3956.923096,4133.333496,4167.692383,4218.974121,0.000000,0.000000,13.000000,,,,0.000000,4.000000,4.000000,2.000000,4.000000,0.000000,50.000000,,,,,,,,,,,,,,,,,,,,,,,,,,,,,,,,
1698692530.359555,1698692530.361038,53.000000,0.000000,3905.641113,3944.615479,4120.000000,4181.025879,4218.974121,0.000000,0.000000,13.000000,,,,0.000000,4.000000,4.000000,2.000000,4.000000,0.000000,50.000000,,,,,,,,,,,,,,,,,,,,,,,,,,,,,,,,
1698692530.367436,1698692530.368818,54.000000,0.000000,3900.000000,3922.051270,4090.769287,4178.974121,4218.974121,0.000000,0.000000,13.000000,,,,0.000000,4.000000,4.000000,2.000000,4.000000,0.000000,50.000000,,,,,,,,,,,,,,,,,,,,,,,,,,,,,,,,
1698692530.375316,1698692530.376598,55.000000,0.000000,3901.538574,3913.846191,4072.307617,4178.974121,4218.974121,0.000000,0.000000,13.000000,,,,0.000000,4.000000,4.000000,2.000000,4.000000,0.000000,50.000000,,,,,,,,,,,,,,,,,,,,,,,,,,,,,,,,
1698692530.383196,1698692530.384378,56.000000,0.000000,3918.461426,3944.615479,4093.333252,4202.563965,4218.974121,0.000000,0.000000,13.000000,,,,0.000000,4.000000,4.000000,2.000000,4.000000,0.000000,50.000000,,,,,,,,,,,,,,,,,,,,,,,,,,,,,,,,
1698692530.391076,1698692530.392159,57.000000,0.000000,3910.769287,3950.769287,4103.077148,4204.102539,4218.974121,0.000000,0.000000,13.000000,,,,0.000000,4.000000,4.000000,2.000000,4.000000,0.000000,50.000000,,,,,,,,,,,,,,,,,,,,,,,,,,,,,,,,
1698692530.398957,1698692530.399939,58.000000,0.000000,3880.512939,3930.256348,4086.153809,4178.974121,4218.974121,0.000000,0.000000,13.000000,,,,0.000000,4.000000,4.000000,2.000000,4.000000,0.000000,50.000000,,,,,,,,,,,,,,,,,,,,,,,,,,,,,,,,
1698692530.406837,1698692530.407919,59.000000,0.000000,3885.128174,3946.666748,4086.153809,4178.974121,4218.974121,0.000000,0.000000,13.000000,,,,0.000000,4.000000,4.000000,2.000000,4.000000,0.000000,50.000000,,,,,,,,,,,,,,,,,,,,,,,,,,,,,,,,
1698692530.414717,1698692530.415900,60.000000,0.000000,3875.384521,3938.461426,4067.179443,4158.974121,4218.974121,0.000000,0.000000,13.000000,,,,0.000000,4.000000,4.000000,2.000000,4.000000,0.000000,50.000000,,,,,,,,,,,,,,,,,,,,,,,,,,,,,,,,
1698692530.422598,1698692530.423880,61.000000,0.000000,3860.512939,3926.153809,4062.564209,4149.230957,4218.974121,0.000000,0.000000,13.000000,,,,0.000000,4.000000,4.000000,2.000000,4.000000,0.000000,50.000000,,,,,,,,4.079825,2.995068,5.437679,1.179830,0.787287,8.062042,5.754831,2.082054,0.989556,0.955050,11.843286,5.629552,4.270057,2.725207,1.120515,5.810865,4.130986,3.022779,1.203555,1.283340,0.185096,0.720743,0.247845,0.163953,0.097728
1698692530.430478,1698692530.431860,62.000000,0.000000,3863.076904,3934.358887,4087.179443,4176.410156,4218.974121,0.000000,0.000000,13.000000,,,,0.000000,4.000000,4.000000,2.000000,4.000000,0.000000,50.000000,,,,,,,,,,,,,,,,,,,,,,,,,,,,,,,,
1698692530.438358,1698692530.439640,63.000000,0.000000,3846.666748,3922.051270,4077.948730,4168.717773,4218.974121,0.000000,0.000000,13.000000,,,,0.000000,4.000000,4.000000,2.000000,4.000000,0.000000,50.000000,,,,,,,,,,,,,,,,,,,,,,,,,,,,,,,,
1698692530.446238,1698692530.447421,64.000000,0.000000,3841.025635,3915.897461,4058.974365,4149.743652,4218.974121,450.000000,0.000000,13.000000,,,,0.000000,4.000000,4.000000,2.000000,4.000000,0.000000,50.000000,,,,,,,,,,,,,,,,,,,,,,,,,,,,,,,,
1698692530.454119,1698692530.455201,65.000000,0.000000,3826.153809,3907.692383,4040.512939,4144.102539,4218.974121,450.000000,0.000000,13.000000,,,,0.000000,4.000000,4.000000,2.000000,4.000000,0.000000,50.000000,,,,,,,,,,,,,,,,,,,,,,,,,,,,,,,,
1698692530.461999,1698692530.462981,66.000000,0.000000,3795.384521,3889.230713,4028.205078,4141.538574,4218.974121,1023.000000,0.000000,13.000000,,,,0.000000,4.000000,4.000000,2.000000,4.000000,0.000000,50.000000,,,,,,,,,,,,,,,,,,,,,,,,,,,,,,,,
1698692530.469879,1698692530.470962,67.000000,0.000000,3785.641113,3883.076904,4030.769287,4138.461426,4218.974121,450.000000,0.000000,13.000000,,,,0.000000,4.000000,4.000000,2.000000,4.000000,0.000000,50.000000,,,,,,,,,,,,,,,,,,,,,,,,,,,,,,,,
1698692530.477759,1698692530.478942,68.000000,0.000000,3772.307617,3883.076904,4017.435791,4119.487305,4218.974121,318.000000,0.000000,13.000000,,,,0.000000,4.000000,2.000000,2.000000,4.000000,0.000000,33.333332,,,,,,,,,,,,,,,,,,,,,,,,,,,,,,,,
1698692530.485639,1698692530.486922,69.000000,0.000000,3777.435791,3905.641113,4024.615479,4130.256348,4218.974121,450.000000,0.000000,13.000000,,,,0.000000,4.000000,2.000000,2.000000,4.000000,0.000000,33.333332,,,,,,,,,,,,,,,,,,,,,,,,,,,,,,,,
1698692530.493520,1698692530.494702,70.000000,0.000000,3777.948730,3905.641113,4032.820557,4149.230957,4218.974121,320.000000,0.000000,13.000000,,,,0.000000,4.000000,2.000000,2.000000,4.000000,0.000000,33.333332,,,,,,,,,,,,,,,,,,,,,,,,,,,,,,,,
1698692530.501400,1698692530.502682,71.000000,0.000000,3752.820557,3881.025635,4006.666748,4131.282227,4218.974121,450.000000,0.000000,13.000000,,,,0.000000,4.000000,2.000000,2.000000,4.000000,0.000000,33.333332,,,,,,,,,,,,,,,,,,,,,,,,,,,,,,,,
1698692530.509280,1698692530.510463,72.000000,0.000000,3754.358887,3889.230713,3996.923096,4123.077148,4218.974121,450.000000,0.000000,13.000000,,,,0.000000,4.000000,2.000000,2.000000,4.000000,0.000000,33.333332,,,,,,,,,,,,,,,,,,,,,,,,,,,,,,,,
1698692530.517161,1698692530.518443,73.000000,0.000000,3761.538574,3893.333252,4010.769287,4122.051270,4219.487305,285.000000,0.000000,13.000000,,,,0.000000,4.000000,2.000000,2.000000,4.000000,0.000000,33.333332,,,,,,,,,,,,,,,,,,,,,,,,,,,,,,,,
1698692530.525041,1698692530.526223,74.000000,0.000000,3752.307617,3876.923096,4015.897461,4113.846191,4218.974121,450.000000,0.000000,13.000000,,,,0.000000,4.000000,2.000000,2.000000,4.000000,0.000000,33.333332,,,,,,,,,,,,,,,,,,,,,,,,,,,,,,,,
1698692530.532921,1698692530.534203,75.000000,0.000000,3741.538574,3862.564209,3996.923096,4099.487305,4218.974121,0.000000,0.000000,13.000000,,,,0.000000,4.000000,2.000000,2.000000,4.000000,0.000000,33.333332,,,,,,,,,,,,,,,,,,,,,,,,,,,,,,,,
1698692530.540801,1698692530.541983,76.000000,0.000000,3754.871826,3881.025635,4009.743652,4111.282227,4219.487305,450.000000,0.000000,13.000000,,,,0.000000,4.000000,2.000000,2.000000,4.000000,0.000000,33.333332,,,,,,,,,,,,,,,,,,,,,,,,,,,,,,,,
1698692530.548682,1698692530.549964,77.000000,0.000000,3748.205078,3889.230713,4036.923096,4135.897461,4217.948730,450.000000,0.000000,13.000000,,,,0.000000,4.000000,2.000000,2.000000,4.000000,0.000000,33.333332,1.000000,33.333332,2.000000,2.000000,2.000000,3.000000,0.000000,4.195886,3.585010,6.676987,1.519619,1.024500,10.583803,5.880512,2.729523,1.291405,1.207996,15.603450,6.106629,5.722006,3.384148,1.124505,6.904609,5.375238,4.667080,1.511684,1.582255,0.112303,0.559371,0.193926,0.133715,0.085450
1698692530.556562,1698692530.557744,78.000000,0.000000,3697.435791,3854.358887,4008.718018,4108.205078,4215.897461,450.000000,0.000000,13.000000,,,,0.000000,4.000000,2.000000,2.000000,4.000000,0.000000,33.333332,,,,,,,,,,,,,,,,,,,,,,,,,,,,,,,,
1698692530.564442,1698692530.565724,79.000000,0.000000,3707.179443,3876.923096,4005.128174,4101.025879,4216.410156,0.000000,0.000000,13.000000,,,,0.000000,4.000000,2.000000,2.000000,4.000000,0.000000,33.333332,,,,,,,,,,,,,,,,,,,,,,,,,,,,,,,,
1698692530.572322,1698692530.573504,80.000000,0.000000,3738.974365,3915.897461,4031.794922,4137.436035,4217.436035,450.000000,0.000000,13.000000,,,,0.000000,4.000000,2.000000,2.000000,4.000000,0.000000,33.333332,,,,,,,,,,,,,,,,,,,,,,,,,,,,,,,,
1698692530.580203,1698692530.581484,81.000000,0.000000,3718.974365,3901.538574,4022.564209,4141.538574,4217.436035,450.000000,0.000000,13.000000,,,,0.000000,4.000000,2.000000,2.000000,4.000000,0.000000,33.333332,,,,,,,,,,,,,,,,,,,,,,,,,,,,,,,,
1698692530.588083,1698692530.589265,82.000000,0.000000,3694.871826,3883.076904,3994.871826,4107.179688,4216.922852,450.000000,0.000000,13.000000,,,,0.000000,4.000000,2.000000,2.000000,4.000000,0.000000,33.333332,,,,,,,,,,,,,,,,,,,,,,,,,,,,,,,,
1698692530.595963,1698692530.597245,83.000000,0.000000,3675.897461,3868.718018,3981.025635,4075.384521,4217.436035,0.000000,0.000000,13.000000,,,,0.000000,4.000000,2.000000,2.000000,4.000000,0.000000,33.333332,,,,,,,,,,,,,,,,,,,,,,,,,,,,,,,,
1698692530.603843,1698692530.605225,84.000000,0.000000,3688.205078,3881.025635,4008.718018,4100.000000,4217.436035,450.000000,0.000000,13.000000,,,,0.000000,4.000000,2.000000,2.000000,4.000000,0.000000,33.333332,,,,,,,,,,,,,,,,,,,,,,,,,,,,,,,,
1698692530.611724,1698692530.613205,85.000000,0.000000,3714.871826,3907.692383,4028.205078,4128.717773,4217.436035,450.000000,0.000000,13.000000,,,,0.000000,4.000000,2.000000,2.000000,4.000000,0.000000,33.333332,,,,,,,,,,,,,,,,,,,,,,,,,,,,,,,,
1698692530.619604,1698692530.620986,86.000000,0.000000,3707.692383,3903.589844,4016.410156,4121.025879,4217.436035,450.000000,0.000000,13.000000,,,,0.000000,4.000000,2.000000,2.000000,4.000000,0.000000,33.333332,,,,,,,,,,,,,,,,,,,,,,,,,,,,,,,,
1698692530.627484,1698692530.628766,87.000000,0.000000,3701.538574,3895.384521,4023.076904,4129.743652,4217.436035,0.000000,0.000000,13.000000,,,,0.000000,4.000000,2.000000,2.000000,4.000000,0.000000,33.333332,,,,,,,,,,,,,,,,,,,,,,,,,,,,,,,,
1698692530.635364,1698692530.636546,88.000000,0.000000,3707.179443,3899.487061,4031.281982,4138.461426,4217.436035,450.000000,0.000000,13.000000,,,,0.000000,4.000000,2.000000,2.000000,4.000000,0.000000,33.333332,,,,,,,,,,,,,,,,,,,,,,,,,,,,,,,,
1698692530.643245,1698692530.644327,89.000000,0.000000,3708.205078,3911.794922,4031.281982,4144.615234,4217.436035,450.000000,0.000000,13.000000,,,,0.000000,4.000000,2.000000,2.000000,4.000000,0.000000,33.333332,,,,,,,,,,,,,,,,,,,,,,,,,,,,,,,,
1698692530.651125,1698692530.652107,90.000000,0.000000,3676.923096,3903.589844,4017.435791,4140.000000,4217.436035,450.000000,0.000000,13.000000,,,,0.000000,4.000000,2.000000,2.000000,4.000000,0.000000,33.333332,,,,,,,,,,,,,,,,,,,,,,,,,,,,,,,,
1698692530.659005,1698692530.659887,91.000000,0.000000,3652.820557,3887.179443,4004.615479,4121.538574,4217.436035,0.000000,0.000000,13.000000,,,,0.000000,4.000000,2.000000,2.000000,4.000000,0.000000,33.333332,,,,,,,,,,,,,,,,,,,,,,,,,,,,,,,,
1698692530.666886,1698692530.667668,92.000000,0.000000,3692.820557,3911.794922,4024.615479,4144.615234,4217.436035,450.000000,0.000000,13.000000,,,,0.000000,4.000000,2.000000,2.000000,4.000000,0.000000,33.333332,,,,,,,,,,,,,,,,,,,,,,,,,,,,,,,,
1698692530.674766,1698692530.675648,93.000000,0.000000,3708.718018,3922.051270,4026.666748,4167.179688,4217.436035,450.000000,0.000000,13.000000,,,,0.000000,4.000000,2.000000,2.000000,4.000000,0.000000,33.333332,,,,,,,,4.374713,4.727448,8.049515,2.000119,1.365884,13.525557,5.556403,3.627386,1.801664,1.561868,19.415054,6.674309,8.134847,4.136908,1.254335,8.311503,7.999949,8.354225,2.071750,1.931537,0.068806,0.375287,0.138438,0.101977,0.070229
1698692530.682646,1698692530.683628,94.000000,0.000000,3690.256348,3907.692383,4020.512939,4154.871582,4217.436035,450.000000,0.000000,13.000000,,,,0.000000,4.000000,2.000000,2.000000,4.000000,0.000000,33.333332,,,,,,,,,,,,,,,,,,,,,,,,,,,,,,,,
1698692530.690526,1698692530.691408,95.000000,0.000000,3696.410156,3905.641113,4025.641113,4136.922852,4217.436035,0.000000,0.000000,13.000000,,,,0.000000,4.000000,2.000000,2.000000,4.000000,0.000000,33.333332,,,,,,,,,,,,,,,,,,,,,,,,,,,,,,,,
1698692530.698406,1698692530.699189,96.000000,0.000000,3701.538574,3903.589844,4016.410156,4130.256348,4217.436035,450.000000,0.000000,13.000000,,,,0.000000,4.000000,2.000000,2.000000,4.000000,0.000000,33.333332,,,,,,,,,,,,,,,,,,,,,,,,,,,,,,,,
1698692530.706287,1698692530.707169,97.000000,0.000000,3708.718018,3903.589844,4016.923096,4136.922852,4217.436035,450.000000,0.000000,13.000000,,,,0.000000,4.000000,2.000000,2.000000,4.000000,0.000000,33.333332,,,,,,,,,,,,,,,,,,,,,,,,,,,,,,,,
1698692530.714167,1698692530.715149,98.000000,0.000000,3691.281982,3881.025635,3984.615479,4091.794922,4217.436035,450.000000,0.000000,13.000000,,,,0.000000,4.000000,2.000000,2.000000,4.000000,0.000000,33.333332,,,,,,,,,,,,,,,,,,,,,,,,,,,,,,,,
1698692530.722047,1698692530.723130,99.000000,0.000000,3668.205078,3866.666748,3947.179443,4050.256348,4217.436035,0.000000,0.000000,13.000000,,,,0.000000,4.000000,2.000000,2.000000,4.000000,0.000000,33.333332,,,,,,,,,,,,,,,,,,,,,,,,,,,,,,,,
1698692530.729927,1698692530.731110,100.000000,0.000000,3693.846191,3895.384521,3984.102539,4097.436035,4217.436035,450.000000,0.000000,13.000000,,,,0.000000,4.000000,2.000000,2.000000,4.000000,0.000000,33.333332,,,,,,,,,,,,,,,,,,,,,,,,,,,,,,,,
1698692530.737808,1698692530.739090,101.000000,0.000000,3713.846191,3907.692383,4013.846191,4128.205078,4217.436035,450.000000,0.000000,13.000000,,,,0.000000,4.000000,2.000000,2.000000,4.000000,0.000000,33.333332,,,,,,,,,,,,,,,,,,,,,,,,,,,,,,,,
1698692530.745688,1698692530.747070,102.000000,0.000000,3723.589844,3913.846191,4000.000000,4113.846191,4217.436035,450.000000,0.000000,13.000000,,,,0.000000,4.000000,2.000000,2.000000,4.000000,0.000000,33.333332,,,,,,,,,,,,,,,,,,,,,,,,,,,,,,,,
1698692530.753568,1698692530.754850,103.000000,0.000000,3750.256348,3942.564209,4020.512939,4128.717773,4217.436035,0.000000,0.000000,13.000000,,,,0.000000,4.000000,2.000000,2.000000,4.000000,0.000000,33.333332,,,,,,,,,,,,,,,,,,,,,,,,,,,,,,,,
1698692530.761449,1698692530.762631,104.000000,0.000000,3788.205078,3975.384521,4074.358887,4181.025879,4217.436035,450.000000,0.000000,13.000000,,,,0.000000,4.000000,2.000000,2.000000,4.000000,0.000000,33.333332,,,,,,,,,,,,,,,,,,,,,,,,,,,,,,,,
1698692530.769329,1698692530.770611,105.000000,0.000000,3803.589844,3973.333252,4077.435791,4203.589844,4217.436035,450.000000,0.000000,13.000000,,,,0.000000,4.000000,2.000000,2.000000,4.000000,0.000000,33.333332,,,,,,,,,,,,,,,,,,,,,,,,,,,,,,,,
1698692530.777209,1698692530.778591,106.000000,0.000000,3789.230713,3940.512939,4043.076904,4169.230957,4217.436035,450.000000,0.000000,13.000000,,,,0.000000,4.000000,2.000000,2.000000,4.000000,0.000000,33.333332,,,,,,,,,,,,,,,,,,,,,,,,,,,,,,,,
1698692530.785089,1698692530.786572,107.000000,0.000000,3795.384521,3952.820557,4062.051270,4163.589844,4217.436035,0.000000,0.000000,13.000000,,,,0.000000,4.000000,2.000000,2.000000,4.000000,0.000000,33.333332,,,,,,,,,,,,,,,,,,,,,,,,,,,,,,,,
1698692530.792970,1698692530.794352,108.000000,0.000000,3785.128174,3954.871826,4068.718018,4164.102539,4217.436035,450.000000,0.000000,13.000000,,,,0.000000,4.000000,2.000000,2.000000,4.000000,0.000000,33.333332,,,,,,,,,,,,,,,,,,,,,,,,,,,,,,,,
1698692530.800850,1698692530.802332,109.000000,0.000000,3763.589844,3928.205078,4042.051270,4149.743652,4217.436035,450.000000,0.000000,13.000000,,,,0.000000,4.000000,2.000000,2.000000,4.000000,0.000000,33.333332,,,,,,,,5.303656,6.377202,9.646965,2.620078,1.771196,17.106436,4.876958,4.534128,2.469303,1.981501,22.410904,7.447484,11.508307,4.901615,1.532112,10.124271,12.382969,14.258613,2.864988,2.284778,0.047654,0.213910,0.090158,0.072393,0.053303
1698692530.808730,1698692530.810112,110.000000,0.000000,3793.846191,3958.974365,4069.743652,4180.512695,4217.436035,450.000000,0.000000,13.000000,,,,0.000000,4.000000,2.000000,2.000000,4.000000,0.000000,33.333332,,,,,,,,,,,,,,,,,,,,,,,,,,,,,,,,
1698692530.816610,1698692530.818092,111.000000,0.000000,3822.051270,4004.102539,4106.666504,4208.717773,4217.436035,0.000000,0.000000,13.000000,,,,0.000000,4.000000,2.000000,2.000000,4.000000,0.000000,33.333332,,,,,,,,,,,,,,,,,,,,,,,,,,,,,,,,
1698692530.824490,1698692530.825873,112.000000,0.000000,3809.743652,3995.897461,4092.307617,4197.948730,4217.436035,450.000000,0.000000,13.000000,,,,0.000000,4.000000,2.000000,2.000000,4.000000,0.000000,33.333332,,,,,,,,,,,,,,,,,,,,,,,,,,,,,,,,
1698692530.832371,1698692530.833853,113.000000,0.000000,3780.512939,3946.666748,4046.666748,4170.256348,4217.436035,450.000000,0.000000,13.000000,,,,0.000000,4.000000,2.000000,2.000000,4.000000,0.000000,33.333332,,,,,,,,,,,,,,,,,,,,,,,,,,,,,,,,
1698692530.840251,1698692530.841633,114.000000,0.000000,3801.025635,3954.871826,4063.076904,4181.025879,4217.436035,450.000000,0.000000,13.000000,,,,0.000000,4.000000,2.000000,2.000000,4.000000,0.000000,33.333332,,,,,,,,,,,,,,,,,,,,,,,,,,,,,,,,
1698692530.848131,1698692530.849613,115.000000,0.000000,3857.948730,4018.461426,4131.282227,4228.205078,4217.436035,0.000000,0.000000,13.000000,,,,0.000000,4.000000,2.000000,2.000000,4.000000,0.000000,33.333332,,,,,,,,,,,,,,,,,,,,,,,,,,,,,,,,
1698692530.856012,1698692530.857394,116.000000,0.000000,3844.615479,4014.358887,4130.256348,4230.256348,4217.436035,450.000000,0.000000,13.000000,,,,0.000000,4.000000,2.000000,2.000000,4.000000,0.000000,33.333332,,,,,,,,,,,,,,,,,,,,,,,,,,,,,,,,
1698692530.863892,1698692530.865374,117.000000,0.000000,3821.025635,3981.538574,4105.128418,4219.487305,4217.436035,450.000000,0.000000,13.000000,,,,0.000000,4.000000,2.000000,2.000000,4.000000,0.000000,33.333332,,,,,,,,,,,,,,,,,,,,,,,,,,,,,,,,
1698692530.871772,1698692530.873154,118.000000,0.000000,3826.153809,3975.384521,4098.974121,4214.358887,4217.436035,450.000000,0.000000,13.000000,,,,0.000000,4.000000,2.000000,2.000000,4.000000,0.000000,33.333332,,,,,,,,,,,,,,,,,,,,,,,,,,,,,,,,
1698692530.879652,1698692530.881134,119.000000,0.000000,3812.820557,3977.435791,4089.230713,4191.282227,4217.436035,0.000000,0.000000,13.000000,,,,0.000000,4.000000,2.000000,2.000000,4.000000,0.000000,33.333332,,,,,,,,,,,,,,,,,,,,,,,,,,,,,,,,
1698692530.887533,1698692530.888914,120.000000,0.000000,3812.307617,3989.743652,4097.436035,4190.256348,4217.436035,450.000000,0.000000,13.000000,,,,0.000000,4.000000,2.000000,2.000000,4.000000,0.000000,33.333332,,,,,,,,,,,,,,,,,,,,,,,,,,,,,,,,
1698692530.895413,1698692530.896895,121.000000,0.000000,3813.333252,3981.538574,4096.410156,4195.384766,4217.436035,450.000000,0.000000,13.000000,,,,0.000000,4.000000,2.000000,2.000000,4.000000,0.000000,33.333332,,,,,,,,,,,,,,,,,,,,,,,,,,,,,,,,
1698692530.903293,1698692530.904675,122.000000,0.000000,3805.128174,3967.179443,4083.589844,4187.692383,4217.436035,450.000000,0.000000,13.000000,,,,0.000000,4.000000,2.000000,2.000000,4.000000,0.000000,33.333332,,,,,,,,,,,,,,,,,,,,,,,,,,,,,,,,
1698692530.911173,1698692530.912655,123.000000,0.000000,3798.461426,3956.923096,4077.435791,4169.743652,4217.436035,0.000000,0.000000,13.000000,,,,0.000000,4.000000,2.000000,2.000000,4.000000,0.000000,33.333332,,,,,,,,,,,,,,,,,,,,,,,,,,,,,,,,
1698692530.919054,1698692530.920435,124.000000,0.000000,3789.230713,3954.871826,4075.384521,4149.230957,4217.436035,450.000000,0.000000,13.000000,,,,0.000000,4.000000,2.000000,2.000000,4.000000,0.000000,33.333332,,,,,,,,,,,,,,,,,,,,,,,,,,,,,,,,
1698692530.926934,1698692530.928315,125.000000,0.000000,3792.820557,3973.333252,4081.025635,4158.461426,4217.436035,450.000000,0.000000,13.000000,,,,0.000000,4.000000,2.000000,2.000000,4.000000,0.000000,33.333332,,,,,,,,6.449141,8.271562,11.334752,3.317945,2.165183,19.319153,4.102420,5.197160,3.173498,2.388736,23.316097,8.477780,15.283334,5.552945,1.912228,11.953196,18.087208,21.384378,3.769153,2.587321,0.037798,0.102745,0.055293,0.047546,0.036906
1698692530.934814,1698692530.936096,126.000000,0.000000,3791.794922,3967.179443,4073.846191,4159.487305,4217.436035,450.000000,0.000000,13.000000,,,,0.000000,4.000000,2.000000,2.000000,4.000000,0.000000,33.333332,,,,,,,,,,,,,,,,,,,,,,,,,,,,,,,,
1698692530.942694,1698692530.943876,127.000000,0.000000,3786.666748,3946.666748,4060.000000,4144.102539,4217.436035,227.000000,0.000000,13.000000,,,,0.000000,4.000000,2.000000,2.000000,4.000000,0.000000,33.333332,,,,,,,,,,,,,,,,,,,,,,,,,,,,,,,,
1698692530.950575,1698692530.951656,0.000000,0.000000,3784.102539,3944.615479,4042.564209,4139.487305,4217.436035,450.000000,0.000000,13.000000,,,,0.000000,4.000000,2.000000,2.000000,4.000000,0.000000,33.333332,,,,,,,,,,,,,,,,,,,,,,,,,,,,,,,,
1698692530.958455,1698692530.959437,1.000000,0.000000,3796.923096,3948.718018,4050.256348,4158.461426,4217.436035,450.000000,0.000000,13.000000,,,,0.000000,4.000000,2.000000,2.000000,4.000000,0.000000,33.333332,,,,,,,,,,,,,,,,,,,,,,,,,,,,,,,,
1698692530.966335,1698692530.967217,2.000000,0.000000,3833.333252,3971.281982,4096.410156,4200.000000,4217.436035,1023.000000,0.000000,13.000000,,,,0.000000,4.000000,2.000000,2.000000,4.000000,0.000000,33.333332,,,,,,,,,,,,,,,,,,,,,,,,,,,,,,,,
1698692530.974215,1698692530.974997,3.000000,0.000000,3818.974365,3965.128174,4084.102539,4178.974121,4217.436035,450.000000,0.000000,13.000000,,,,0.000000,4.000000,2.000000,2.000000,4.000000,0.000000,33.333332,,,,,,,,,,,,,,,,,,,,,,,,,,,,,,,,
1698692530.982096,1698692530.982778,4.000000,0.000000,3791.281982,3952.820557,4054.358887,4136.922852,4217.436035,324.000000,0.000000,13.000000,,,,0.000000,4.000000,2.000000,2.000000,4.000000,0.000000,33.333332,,,,,,,,,,,,,,,,,,,,,,,,,,,,,,,,
1698692530.989976,1698692530.990558,5.000000,0.000000,3807.692383,3963.076904,4071.281982,4153.333496,4217.436035,450.000000,0.000000,13.000000,,,,0.000000,4.000000,2.000000,2.000000,4.000000,0.000000,33.333332,,,,,,,,,,,,,,,,,,,,,,,,,,,,,,,,
1698692530.997856,1698692530.998338,6.000000,0.000000,3792.307617,3934.358887,4053.846191,4146.666504,4217.436035,1023.000000,0.000000,13.000000,,,,0.000000,4.000000,2.000000,4.000000,4.000000,0.000000,50.000000,,,,,,,,,,,,,,,,,,,,,,,,,,,,,,,,
1698692531.005736,1698692531.006119,7.000000,0.000000,3771.794922,3924.102539,4029.230713,4118.974121,4217.436035,450.000000,0.000000,13.000000,,,,0.000000,4.000000,2.000000,4.000000,4.000000,0.000000,50.000000,,,,,,,,,,,,,,,,,,,,,,,,,,,,,,,,
1698692531.013617,1698692531.013899,8.000000,0.000000,3774.871826,3946.666748,4038.461426,4116.410156,4217.436035,450.000000,0.000000,13.000000,,,,0.000000,4.000000,2.000000,4.000000,4.000000,0.000000,50.000000,,,,,,,,,,,,,,,,,,,,,,,,,,,,,,,,
1698692531.021497,1698692531.021879,9.000000,0.000000,3768.718018,3948.718018,4043.076904,4122.051270,4217.436035,309.000000,0.000000,13.000000,,,,0.000000,4.000000,2.000000,4.000000,4.000000,0.000000,50.000000,,,,,,,,,,,,,,,,,,,,,,,,,,,,,,,,
1698692531.029377,1698692531.029860,10.000000,0.000000,3773.333252,3940.512939,4035.897461,4116.410156,4217.436035,450.000000,0.000000,13.000000,,,,0.000000,4.000000,2.000000,4.000000,4.000000,0.000000,50.000000,,,,,,,,,,,,,,,,,,,,,,,,,,,,,,,,
1698692531.037257,1698692531.037840,11.000000,0.000000,3775.384521,3942.564209,4031.794922,4099.487305,4217.436035,0.000000,0.000000,13.000000,,,,0.000000,4.000000,2.000000,4.000000,4.000000,0.000000,50.000000,,,,,,,,,,,,,,,,,,,,,,,,,,,,,,,,
1698692531.045138,1698692531.045820,12.000000,0.000000,3760.512939,3948.718018,4026.153809,4093.333252,4217.436035,450.000000,0.000000,13.000000,,,,0.000000,4.000000,2.000000,4.000000,4.000000,0.000000,50.000000,,,,,,,,,,,,,,,,,,,,,,,,,,,,,,,,
1698692531.053018,1698692531.053600,13.000000,0.000000,3749.230713,3932.307617,4010.769287,4091.794922,4217.436035,450.000000,0.000000,13.000000,,,,0.000000,4.000000,2.000000,4.000000,4.000000,0.000000,50.000000,1.000000,33.333332,2.000000,2.000000,2.000000,4.000000,0.000000,7.768970,9.944725,12.822944,3.966822,2.472890,20.115955,3.494128,5.467789,3.766974,2.703854,22.117960,9.450080,18.486883,5.949213,2.312000,13.545094,23.806917,27.853125,4.580288,2.803410,0.029175,0.043154,0.033515,0.028225,0.022938
1698692531.060898,1698692531.061381,14.000000,0.000000,3796.410156,3950.769287,4044.102539,4126.666504,4217.436035,450.000000,0.000000,13.000000,,,,0.000000,4.000000,2.000000,4.000000,4.000000,0.000000,50.000000,,,,,,,,,,,,,,,,,,,,,,,,,,,,,,,,
1698692531.068778,1698692531.069161,15.000000,0.000000,3855.384521,4010.256348,4101.538574,4183.077148,4217.436035,0.000000,0.000000,13.000000,,,,0.000000,4.000000,2.000000,4.000000,4.000000,0.000000,50.000000,,,,,,,,,,,,,,,,,,,,,,,,,,,,,,,,
1698692531.076659,1698692531.076941,16.000000,0.000000,3826.153809,4004.102539,4087.179443,4171.282227,4217.436035,0.000000,0.000000,13.000000,,,,0.000000,4.000000,2.000000,4.000000,4.000000,0.000000,50.000000,,,,,,,,,,,,,,,,,,,,,,,,,,,,,,,,
1698692531.084539,1698692531.084922,17.000000,0.000000,3802.564209,3987.692383,4064.615479,4149.230957,4217.436035,0.000000,0.000000,13.000000,,,,0.000000,4.000000,2.000000,4.000000,4.000000,0.000000,50.000000,,,,,,,,,,,,,,,,,,,,,,,,,,,,,,,,
1698692531.092419,1698692531.092902,18.000000,0.000000,3823.589844,3997.948730,4067.179443,4154.358887,4217.436035,0.000000,0.000000,13.000000,,,,0.000000,4.000000,2.000000,4.000000,4.000000,0.000000,50.000000,,,,,,,,,,,,,,,,,,,,,,,,,,,,,,,,
1698692531.100299,1698692531.100882,19.000000,0.000000,3824.102539,3997.948730,4063.076904,4152.820313,4217.436035,0.000000,0.000000,13.000000,,,,0.000000,4.000000,2.000000,4.000000,4.000000,0.000000,50.000000,,,,,,,,,,,,,,,,,,,,,,,,,,,,,,,,
1698692531.108180,1698692531.108662,20.000000,0.000000,3825.128174,4014.358887,4081.025635,4166.153809,4217.436035,0.000000,0.000000,13.000000,,,,0.000000,4.000000,2.000000,4.000000,4.000000,0.000000,50.000000,,,,,,,,,,,,,,,,,,,,,,,,,,,,,,,,
1698692531.116060,1698692531.116642,21.000000,0.000000,3815.897461,4016.410156,4087.692383,4161.538574,4216.410156,0.000000,0.000000,13.000000,,,,0.000000,4.000000,2.000000,4.000000,4.000000,0.000000,50.000000,,,,,,,,,,,,,,,,,,,,,,,,,,,,,,,,
1698692531.123940,1698692531.124423,22.000000,0.000000,3811.794922,4006.153809,4084.102539,4151.282227,4215.384766,0.000000,0.000000,13.000000,,,,0.000000,4.000000,2.000000,4.000000,4.000000,0.000000,50.000000,,,,,,,,,,,,,,,,,,,,,,,,,,,,,,,,
1698692531.131820,1698692531.132403,23.000000,0.000000,3824.615479,4014.358887,4086.666748,4156.410156,4215.897461,0.000000,0.000000,13.000000,,,,0.000000,4.000000,2.000000,4.000000,4.000000,0.000000,50.000000,,,,,,,,,,,,,,,,,,,,,,,,,,,,,,,,
1698692531.139701,1698692531.140183,24.000000,0.000000,3810.769287,4020.512939,4074.358887,4138.974121,4215.384766,0.000000,0.000000,13.000000,,,,0.000000,4.000000,2.000000,4.000000,4.000000,0.000000,50.000000,,,,,,,,,,,,,,,,,,,,,,,,,,,,,,,,
1698692531.147581,1698692531.148163,25.000000,0.000000,3792.820557,4020.512939,4071.794922,4135.897461,4215.897461,0.000000,0.000000,13.000000,,,,0.000000,4.000000,2.000000,4.000000,4.000000,0.000000,50.000000,,,,,,,,,,,,,,,,,,,,,,,,,,,,,,,,
1698692531.155461,1698692531.155943,26.000000,0.000000,3792.820557,4006.153809,4068.205078,4142.051270,4216.410156,0.000000,0.000000,13.000000,,,,0.000000,4.000000,2.000000,4.000000,4.000000,0.000000,50.000000,,,,,,,,,,,,,,,,,,,,,,,,,,,,,,,,
1698692531.163341,1698692531.163924,27.000000,0.000000,3825.641113,4004.102539,4066.666748,4137.948730,4216.922852,0.000000,0.000000,13.000000,,,,0.000000,4.000000,2.000000,4.000000,4.000000,0.000000,50.000000,,,,,,,,,,,,,,,,,,,,,,,,,,,,,,,,
1698692531.171222,1698692531.171704,28.000000,0.000000,3853.333252,4022.564209,4072.820557,4131.794922,4216.922852,0.000000,0.000000,13.000000,,,,0.000000,4.000000,2.000000,4.000000,4.000000,0.000000,50.000000,,,,,,,,,,,,,,,,,,,,,,,,,,,,,,,,
1698692531.179102,1698692531.179684,29.000000,0.000000,3852.307617,4038.974365,4078.974365,4130.256348,4216.922852,0.000000,0.000000,13.000000,,,,0.000000,4.000000,2.000000,4.000000,4.000000,0.000000,50.000000,,,,,,,,8.951477,11.019503,13.751216,4.403657,2.645089,18.636761,3.252272,5.372844,4.115396,2.878769,19.425795,10.100709,20.164810,5.991416,2.650542,14.752120,28.041033,31.682526,5.084095,2.925622,0.019922,0.017749,0.020010,0.014686,0.012611
1698692531.186982,1698692531.187464,30.000000,0.000000,3876.410156,4047.179443,4086.153809,4139.487305,4216.922852,0.000000,0.000000,13.000000,,,,0.000000,4.000000,2.000000,4.000000,4.000000,0.000000,50.000000,,,,,,,,,,,,,,,,,,,,,,,,,,,,,,,,
1698692531.194862,1698692531.195444,31.000000,0.000000,3880.000000,4026.666748,4067.692383,4121.025879,4216.410156,0.000000,0.000000,13.000000,,,,0.000000,4.000000,2.000000,4.000000,4.000000,0.000000,50.000000,,,,,,,,,,,,,,,,,,,,,,,,,,,,,,,,
1698692531.202743,1698692531.203225,32.000000,0.000000,3847.179443,4012.307617,4056.923096,4102.563965,4216.410156,0.000000,0.000000,13.000000,,,,0.000000,4.000000,2.000000,4.000000,4.000000,0.000000,50.000000,,,,,,,,,,,,,,,,,,,,,,,,,,,,,,,,
1698692531.210623,1698692531.211205,33.000000,0.000000,3828.718018,4016.410156,4055.897461,4103.589844,4216.410156,0.000000,0.000000,13.000000,,,,0.000000,4.000000,2.000000,4.000000,4.000000,0.000000,50.000000,,,,,,,,,,,,,,,,,,,,,,,,,,,,,,,,
1698692531.218503,1698692531.218985,34.000000,0.000000,3836.410156,4016.410156,4054.871826,4108.717773,4216.410156,0.000000,0.000000,13.000000,,,,0.000000,4.000000,2.000000,4.000000,4.000000,0.000000,50.000000,,,,,,,,,,,,,,,,,,,,,,,,,,,,,,,,
1698692531.226384,1698692531.226965,35.000000,0.000000,3876.923096,4043.076904,4081.025635,4130.769043,4216.410156,0.000000,0.000000,13.000000,,,,0.000000,4.000000,2.000000,4.000000,4.000000,0.000000,50.000000,,,,,,,,,,,,,,,,,,,,,,,,,,,,,,,,
1698692531.234264,1698692531.234746,36.000000,0.000000,3893.333252,4055.384521,4090.769287,4130.256348,4216.410156,0.000000,0.000000,13.000000,,,,0.000000,4.000000,2.000000,4.000000,4.000000,0.000000,50.000000,,,,,,,,,,,,,,,,,,,,,,,,,,,,,,,,
1698692531.242144,1698692531.242726,37.000000,0.000000,3903.076904,4057.435791,4098.974121,4136.410156,4216.410156,0.000000,0.000000,13.000000,,,,0.000000,4.000000,2.000000,4.000000,4.000000,0.000000,50.000000,,,,,,,,,,,,,,,,,,,,,,,,,,,,,,,,
1698692531.250024,1698692531.250506,38.000000,0.000000,3926.153809,4082.051270,4127.179688,4163.077148,4216.410156,0.000000,0.000000,13.000000,,,,0.000000,4.000000,2.000000,4.000000,4.000000,0.000000,50.000000,,,,,,,,,,,,,,,,,,,,,,,,,,,,,,,,
1698692531.257904,1698692531.258486,39.000000,0.000000,3928.205078,4092.307617,4136.922852,4157.948730,4216.410156,0.000000,0.000000,13.000000,,,,0.000000,4.000000,2.000000,4.000000,4.000000,0.000000,50.000000,,,,,,,,,,,,,,,,,,,,,,,,,,,,,,,,
1698692531.265785,1698692531.266467,40.000000,0.000000,3935.897461,4106.666504,4152.307617,4163.077148,4216.410156,0.000000,0.000000,13.000000,,,,0.000000,4.000000,2.000000,4.000000,4.000000,0.000000,50.000000,,,,,,,,,,,,,,,,,,,,,,,,,,,,,,,,
1698692531.273665,1698692531.274247,41.000000,0.000000,3931.794922,4104.615234,4153.846191,4168.717773,4216.410156,0.000000,0.000000,13.000000,,,,0.000000,4.000000,2.000000,4.000000,4.000000,0.000000,50.000000,,,,,,,,,,,,,,,,,,,,,,,,,,,,,,,,
1698692531.281545,1698692531.282027,42.000000,0.000000,3931.794922,4090.256348,4138.974121,4158.974121,4216.410156,0.000000,0.000000,13.000000,,,,0.000000,4.000000,2.000000,4.000000,4.000000,0.000000,50.000000,,,,,,,,,,,,,,,,,,,,,,,,,,,,,,,,
1698692531.289425,1698692531.289808,43.000000,0.000000,3943.076904,4090.256348,4122.051270,4147.692383,4216.410156,0.000000,0.000000,13.000000,,,,0.000000,4.000000,2.000000,4.000000,4.000000,0.000000,50.000000,,,,,,,,,,,,,,,,,,,,,,,,,,,,,,,,
1698692531.297306,1698692531.297588,44.000000,0.000000,3916.410156,4077.948730,4084.615479,4111.282227,4216.410156,0.000000,0.000000,13.000000,,,,0.000000,4.000000,2.000000,4.000000,4.000000,0.000000,50.000000,,,,,,,,,,,,,,,,,,,,,,,,,,,,,,,,
1698692531.305186,1698692531.305368,45.000000,0.000000,3920.512939,4080.000000,4085.641113,4112.820313,4216.410156,0.000000,0.000000,13.000000,,,,0.000000,4.000000,2.000000,4.000000,4.000000,0.000000,50.000000,,,,,,,,9.573193,11.275865,13.746414,4.510468,2.678051,15.948465,3.393311,5.025945,4.165816,2.909852,16.474125,10.167911,19.767668,5.678098,2.874747,15.597186,29.608923,31.619045,5.168068,2.967963,0.012319,0.007702,0.011545,0.007034,0.006108
1698692531.313066,1698692531.313149,46.000000,0.000000,3969.743652,4100.512695,4128.205078,4164.615234,4216.410156,0.000000,0.000000,13.000000,,,,0.000000,4.000000,2.000000,4.000000,4.000000,0.000000,50.000000,,,,,,,,,,,,,,,,,,,,,,,,,,,,,,,,
1698692531.320947,1698692531.321129,47.000000,0.000000,4005.641113,4135.384766,4163.589844,4196.410156,4216.410156,0.000000,0.000000,13.000000,,,,0.000000,4.000000,2.000000,4.000000,4.000000,0.000000,50.000000,,,,,,,,,,,,,,,,,,,,,,,,,,,,,,,,
1698692531.328827,1698692531.329109,48.000000,0.000000,4023.076904,4166.153809,4174.871582,4193.846191,4216.410156,0.000000,0.000000,13.000000,,,,0.000000,4.000000,2.000000,4.000000,4.000000,0.000000,50.000000,,,,,,,,,,,,,,,,,,,,,,,,,,,,,,,,
1698692531.336707,1698692531.337089,49.000000,0.000000,4007.692383,4131.282227,4149.230957,4156.922852,4216.410156,0.000000,0.000000,13.000000,,,,0.000000,4.000000,2.000000,4.000000,4.000000,0.000000,50.000000,,,,,,,,,,,,,,,,,,,,,,,,,,,,,,,,
1698692531.344587,1698692531.345069,50.000000,0.000000,4000.512939,4106.666504,4146.153809,4154.358887,4216.410156,0.000000,0.000000,13.000000,,,,0.000000,4.000000,2.000000,4.000000,4.000000,0.000000,50.000000,,,,,,,,,,,,,,,,,,,,,,,,,,,,,,,,
1698692531.352468,1698692531.353050,51.000000,0.000000,4002.564209,4129.230957,4152.820313,4170.769043,4216.410156,0.000000,0.000000,13.000000,,,,0.000000,4.000000,2.000000,4.000000,4.000000,0.000000,50.000000,,,,,,,,,,,,,,,,,,,,,,,,,,,,,,,,
1698692531.360348,1698692531.361030,52.000000,0.000000,3983.589844,4125.128418,4133.333496,4148.205078,4216.410156,0.000000,0.000000,13.000000,,,,0.000000,4.000000,2.000000,4.000000,4.000000,0.000000,50.000000,,,,,,,,,,,,,,,,,,,,,,,,,,,,,,,,
1698692531.368228,1698692531.368810,53.000000,0.000000,3981.025635,4102.563965,4138.461426,4147.179688,4216.410156,0.000000,0.000000,13.000000,,,,0.000000,4.000000,2.000000,4.000000,4.000000,0.000000,50.000000,,,,,,,,,,,,,,,,,,,,,,,,,,,,,,,,
1698692531.376108,1698692531.376591,54.000000,0.000000,3969.743652,4077.948730,4128.717773,4135.897461,4216.410156,0.000000,0.000000,13.000000,,,,0.000000,4.000000,2.000000,4.000000,4.000000,0.000000,50.000000,,,,,,,,,,,,,,,,,,,,,,,,,,,,,,,,
1698692531.383989,1698692531.384571,55.000000,0.000000,3948.205078,4069.743652,4096.410156,4097.948730,4216.410156,0.000000,0.000000,13.000000,,,,0.000000,4.000000,2.000000,4.000000,4.000000,0.000000,50.000000,,,,,,,,,,,,,,,,,,,,,,,,,,,,,,,,
1698692531.391869,1698692531.392551,56.000000,0.000000,3949.743652,4073.846191,4091.281982,4093.846191,4216.410156,0.000000,0.000000,13.000000,,,,0.000000,4.000000,2.000000,4.000000,4.000000,0.000000,50.000000,,,,,,,,,,,,,,,,,,,,,,,,,,,,,,,,
1698692531.399749,1698692531.400531,57.000000,0.000000,3961.025635,4080.000000,4098.461426,4112.820313,4216.410156,0.000000,0.000000,13.000000,,,,0.000000,4.000000,2.000000,4.000000,4.000000,0.000000,50.000000,,,,,,,,,,,,,,,,,,,,,,,,,,,,,,,,
1698692531.407629,1698692531.408412,58.000000,0.000000,3966.666748,4090.256348,4098.461426,4112.820313,4216.410156,0.000000,0.000000,13.000000,,,,0.000000,4.000000,2.000000,4.000000,4.000000,0.000000,50.000000,,,,,,,,,,,,,,,,,,,,,,,,,,,,,,,,
1698692531.415510,1698692531.416392,59.000000,0.000000,3952.820557,4086.153809,4094.358887,4092.307617,4216.410156,0.000000,0.000000,13.000000,,,,0.000000,4.000000,2.000000,4.000000,4.000000,0.000000,50.000000,,,,,,,,,,,,,,,,,,,,,,,,,,,,,,,,
1698692531.423390,1698692531.424172,60.000000,0.000000,3956.923096,4086.153809,4114.358887,4101.538574,4216.410156,0.000000,0.000000,13.000000,,,,0.000000,4.000000,2.000000,4.000000,4.000000,0.000000,50.000000,,,,,,,,,,,,,,,,,,,,,,,,,,,,,,,,
1698692531.431270,1698692531.432152,61.000000,0.000000,3951.281982,4073.846191,4105.128418,4096.410156,4216.410156,0.000000,0.000000,13.000000,,,,0.000000,4.000000,2.000000,4.000000,4.000000,0.000000,50.000000,,,,,,,,9.766128,10.818749,12.665234,4.281566,2.609124,12.835325,3.802830,4.590869,3.969222,2.828814,14.265611,9.589768,17.357367,5.121006,2.965845,16.230915,28.211391,27.689438,4.874360,2.946228,0.007248,0.003988,0.006455,0.003443,0.002744
1698692531.439150,1698692531.439932,62.000000,0.000000,3909.743652,4038.974365,4057.948730,4055.897461,4216.410156,0.000000,0.000000,13.000000,,,,0.000000,4.000000,2.000000,4.000000,4.000000,0.000000,50.000000,,,,,,,,,,,,,,,,,,,,,,,,,,,,,,,,
1698692531.447031,1698692531.447913,63.000000,0.000000,3902.051270,4049.230713,4066.666748,4053.333252,4216.410156,0.000000,0.000000,13.000000,,,,0.000000,4.000000,2.000000,4.000000,4.000000,0.000000,50.000000,,,,,,,,,,,,,,,,,,,,,,,,,,,,,,,,
1698692531.454911,1698692531.455693,64.000000,0.000000,3892.820557,4045.128174,4062.564209,4044.102539,4216.410156,450.000000,0.000000,13.000000,,,,0.000000,4.000000,2.000000,4.000000,4.000000,0.000000,50.000000,,,,,,,,,,,,,,,,,,,,,,,,,,,,,,,,
1698692531.462791,1698692531.463673,65.000000,0.000000,3867.692383,4026.666748,4033.846191,4027.692383,4215.897461,450.000000,0.000000,13.000000,,,,0.000000,4.000000,2.000000,4.000000,4.000000,0.000000,50.000000,,,,,,,,,,,,,,,,,,,,,,,,,,,,,,,,
1698692531.470671,1698692531.471453,66.000000,0.000000,3871.281982,4045.128174,4060.512939,4043.076904,4215.384766,1023.000000,0.000000,13.000000,,,,0.000000,4.000000,2.000000,4.000000,4.000000,0.000000,50.000000,,,,,,,,,,,,,,,,,,,,,,,,,,,,,,,,
1698692531.478552,1698692531.479433,67.000000,0.000000,3868.205078,4043.076904,4058.974365,4029.743652,4215.897461,450.000000,0.000000,13.000000,,,,0.000000,4.000000,2.000000,4.000000,4.000000,0.000000,50.000000,,,,,,,,,,,,,,,,,,,,,,,,,,,,,,,,
1698692531.486432,1698692531.487214,68.000000,0.000000,3863.076904,4032.820557,4010.769287,4007.179443,4215.897461,323.000000,0.000000,13.000000,,,,0.000000,4.000000,2.000000,4.000000,4.000000,0.000000,50.000000,,,,,,,,,,,,,,,,,,,,,,,,,,,,,,,,
1698692531.494312,1698692531.495194,69.000000,0.000000,3863.589844,4034.871826,4006.153809,4022.564209,4215.897461,450.000000,0.000000,13.000000,,,,0.000000,4.000000,2.000000,4.000000,4.000000,0.000000,50.000000,,,,,,,,,,,,,,,,,,,,,,,,,,,,,,,,
1698692531.502192,1698692531.502974,70.000000,0.000000,3871.281982,4047.179443,4048.718018,4052.820557,4215.897461,1023.000000,0.000000,13.000000,,,,0.000000,4.000000,2.000000,4.000000,4.000000,0.000000,50.000000,,,,,,,,,,,,,,,,,,,,,,,,,,,,,,,,
1698692531.510073,1698692531.510954,71.000000,0.000000,3873.846191,4055.384521,4053.333252,4055.384521,4215.384766,450.000000,0.000000,13.000000,,,,0.000000,4.000000,2.000000,4.000000,4.000000,0.000000,50.000000,,,,,,,,,,,,,,,,,,,,,,,,,,,,,,,,
1698692531.517953,1698692531.518735,72.000000,0.000000,3842.564209,4038.974365,4026.153809,4028.718018,4215.897461,450.000000,0.000000,13.000000,,,,0.000000,4.000000,2.000000,4.000000,4.000000,0.000000,50.000000,,,,,,,,,,,,,,,,,,,,,,,,,,,,,,,,
1698692531.525833,1698692531.526715,73.000000,0.000000,3828.718018,4038.974365,4049.230713,4033.846191,4215.897461,1023.000000,0.000000,13.000000,,,,0.000000,4.000000,2.000000,4.000000,4.000000,0.000000,50.000000,,,,,,,,,,,,,,,,,,,,,,,,,,,,,,,,
1698692531.533713,1698692531.534695,74.000000,0.000000,3825.128174,4053.333252,4066.153809,4040.512939,4215.384766,450.000000,0.000000,13.000000,,,,0.000000,4.000000,2.000000,4.000000,4.000000,0.000000,50.000000,,,,,,,,,,,,,,,,,,,,,,,,,,,,,,,,
1698692531.541594,1698692531.542675,75.000000,0.000000,3822.051270,4065.641113,4051.281982,4029.743652,4215.897461,0.000000,0.000000,13.000000,,,,0.000000,4.000000,2.000000,4.000000,4.000000,0.000000,50.000000,,,,,,,,,,,,,,,,,,,,,,,,,,,,,,,,
1698692531.549474,1698692531.550456,76.000000,0.000000,3842.051270,4067.692383,4050.769287,4039.487061,4216.410156,450.000000,0.000000,13.000000,,,,0.000000,4.000000,2.000000,4.000000,4.000000,0.000000,50.000000,,,,,,,,,,,,,,,,,,,,,,,,,,,,,,,,
1698692531.557354,1698692531.558336,77.000000,0.000000,3866.666748,4065.641113,4072.820557,4062.564209,4216.922852,450.000000,0.000000,13.000000,,,,0.000000,4.000000,2.000000,4.000000,4.000000,0.000000,50.000000,1.000000,33.333332,2.000000,2.000000,2.000000,3.000000,0.000000,9.528672,10.070544,10.823013,3.841199,2.490784,10.496018,4.264243,4.229056,3.633951,2.678543,13.388794,8.641827,13.722761,4.506970,2.931135,16.955080,24.570831,21.269545,4.379335,2.862327,0.004898,0.002891,0.003725,0.001957,0.001314
1698692531.565235,1698692531.566116,78.000000,0.000000,3887.692383,4098.461426,4106.153809,4089.743652,4216.410156,450.000000,0.000000,13.000000,,,,0.000000,4.000000,2.000000,4.000000,4.000000,0.000000,50.000000,,,,,,,,,,,,,,,,,,,,,,,,,,,,,,,,
1698692531.573115,1698692531.573896,79.000000,0.000000,3883.589844,4114.871582,4098.974121,4087.692383,4216.410156,0.000000,0.000000,13.000000,,,,0.000000,4.000000,2.000000,4.000000,4.000000,0.000000,50.000000,,,,,,,,,,,,,,,,,,,,,,,,,,,,,,,,
1698692531.580995,1698692531.581677,80.000000,0.000000,3884.102539,4112.820313,4086.153809,4081.538574,4216.922852,450.000000,0.000000,13.000000,,,,0.000000,4.000000,2.000000,4.000000,4.000000,0.000000,50.000000,,,,,,,,,,,,,,,,,,,,,,,,,,,,,,,,
1698692531.588875,1698692531.589457,81.000000,0.000000,3909.743652,4125.128418,4103.589844,4097.436035,4216.410156,450.000000,0.000000,13.000000,,,,0.000000,4.000000,2.000000,4.000000,4.000000,0.000000,50.000000,,,,,,,,,,,,,,,,,,,,,,,,,,,,,,,,
1698692531.596755,1698692531.597237,82.000000,0.000000,3908.205078,4114.871582,4106.153809,4091.794922,4216.410156,450.000000,0.000000,13.000000,,,,0.000000,4.000000,2.000000,4.000000,4.000000,0.000000,50.000000,,,,,,,,,,,,,,,,,,,,,,,,,,,,,,,,
1698692531.604636,1698692531.605018,83.000000,0.000000,3901.538574,4121.025879,4115.384766,4092.307617,4216.410156,0.000000,0.000000,13.000000,,,,0.000000,4.000000,2.000000,4.000000,4.000000,0.000000,50.000000,,,,,,,,,,,,,,,,,,,,,,,,,,,,,,,,
1698692531.612516,1698692531.612798,84.000000,0.000000,3906.666748,4143.589844,4126.153809,4098.461426,4216.410156,450.000000,0.000000,13.000000,,,,0.000000,4.000000,2.000000,4.000000,4.000000,0.000000,50.000000,,,,,,,,,,,,,,,,,,,,,,,,,,,,,,,,
1698692531.620396,1698692531.620578,85.000000,0.000000,3902.051270,4131.282227,4109.230957,4085.128174,4216.410156,450.000000,0.000000,13.000000,,,,0.000000,4.000000,2.000000,4.000000,4.000000,0.000000,50.000000,,,,,,,,,,,,,,,,,,,,,,,,,,,,,,,,
1698692531.628276,1698692531.628359,86.000000,0.000000,3896.410156,4108.717773,4085.128174,4074.871826,4216.410156,450.000000,0.000000,13.000000,,,,0.000000,4.000000,2.000000,4.000000,4.000000,0.000000,50.000000,,,,,,,,,,,,,,,,,,,,,,,,,,,,,,,,
1698692531.636157,1698692531.636339,87.000000,0.000000,3880.512939,4090.256348,4061.538574,4058.974365,4216.410156,0.000000,0.000000,13.000000,,,,0.000000,4.000000,2.000000,4.000000,4.000000,0.000000,50.000000,,,,,,,,,,,,,,,,,,,,,,,,,,,,,,,,
1698692531.644037,1698692531.644319,88.000000,0.000000,3901.025635,4112.820313,4076.923096,4067.692383,4216.410156,450.000000,0.000000,13.000000,,,,0.000000,4.000000,2.000000,4.000000,4.000000,0.000000,50.000000,,,,,,,,,,,,,,,,,,,,,,,,,,,,,,,,
1698692531.651917,1698692531.652299,89.000000,0.000000,3941.025635,4133.333496,4104.615234,4091.281982,4216.410156,450.000000,0.000000,13.000000,,,,0.000000,4.000000,2.000000,4.000000,4.000000,0.000000,50.000000,,,,,,,,,,,,,,,,,,,,,,,,,,,,,,,,
1698692531.659798,1698692531.660280,90.000000,0.000000,3932.820557,4118.974121,4095.384521,4071.794922,4216.410156,450.000000,0.000000,13.000000,,,,0.000000,4.000000,2.000000,4.000000,4.000000,0.000000,50.000000,,,,,,,,,,,,,,,,,,,,,,,,,,,,,,,,
1698692531.667678,1698692531.668060,91.000000,0.000000,3931.794922,4135.384766,4096.922852,4063.076904,4216.410156,0.000000,0.000000,13.000000,,,,0.000000,4.000000,2.000000,4.000000,4.000000,0.000000,50.000000,,,,,,,,,,,,,,,,,,,,,,,,,,,,,,,,
1698692531.675558,1698692531.676040,92.000000,0.000000,3958.461426,4149.743652,4103.589844,4081.538574,4216.410156,450.000000,0.000000,13.000000,,,,0.000000,4.000000,2.000000,4.000000,4.000000,0.000000,50.000000,,,,,,,,,,,,,,,,,,,,,,,,,,,,,,,,
1698692531.683438,1698692531.683820,93.000000,0.000000,3970.256348,4143.589844,4102.051270,4090.256348,4216.410156,450.000000,0.000000,13.000000,,,,0.000000,4.000000,2.000000,4.000000,4.000000,0.000000,50.000000,,,,,,,,9.575301,9.522024,8.971430,3.381648,2.359615,9.763977,4.623976,4.097984,3.290832,2.493840,14.034522,7.799517,10.034105,4.022454,2.790709,18.278498,20.052525,14.451293,3.914291,2.712736,0.004007,0.002581,0.002614,0.001311,0.000760
1698692531.691318,1698692531.691601,94.000000,0.000000,3948.718018,4135.384766,4092.820557,4071.794922,4216.410156,450.000000,0.000000,13.000000,,,,0.000000,4.000000,2.000000,4.000000,4.000000,0.000000,50.000000,,,,,,,,,,,,,,,,,,,,,,,,,,,,,,,,
1698692531.699199,1698692531.699581,95.000000,0.000000,3956.923096,4135.384766,4097.948730,4073.333252,4216.410156,0.000000,0.000000,13.000000,,,,0.000000,4.000000,2.000000,4.000000,4.000000,0.000000,50.000000,,,,,,,,,,,,,,,,,,,,,,,,,,,,,,,,
1698692531.707079,1698692531.707561,96.000000,0.000000,4023.589844,4168.205078,4134.871582,4127.179688,4216.410156,450.000000,0.000000,13.000000,,,,0.000000,4.000000,2.000000,4.000000,4.000000,0.000000,50.000000,,,,,,,,,,,,,,,,,,,,,,,,,,,,,,,,
1698692531.714959,1698692531.715541,97.000000,0.000000,4009.743652,4166.153809,4119.487305,4111.282227,4216.410156,450.000000,0.000000,13.000000,,,,0.000000,4.000000,2.000000,4.000000,4.000000,0.000000,50.000000,,,,,,,,,,,,,,,,,,,,,,,,,,,,,,,,
1698692531.722839,1698692531.723322,98.000000,0.000000,3963.589844,4151.794922,4089.743652,4068.718018,4216.410156,450.000000,0.000000,13.000000,,,,0.000000,4.000000,2.000000,4.000000,4.000000,0.000000,50.000000,,,,,,,,,,,,,,,,,,,,,,,,,,,,,,,,
1698692531.730720,1698692531.731302,99.000000,0.000000,3989.230713,4157.948730,4108.205078,4100.512695,4216.410156,0.000000,0.000000,13.000000,,,,0.000000,4.000000,2.000000,4.000000,4.000000,0.000000,50.000000,,,,,,,,,,,,,,,,,,,,,,,,,,,,,,,,
1698692531.738600,1698692531.739082,100.000000,0.000000,3990.769287,4141.538574,4100.512695,4105.128418,4216.410156,450.000000,0.000000,13.000000,,,,0.000000,4.000000,2.000000,4.000000,4.000000,0.000000,50.000000,,,,,,,,,,,,,,,,,,,,,,,,,,,,,,,,
1698692531.746480,1698692531.747062,101.000000,0.000000,3975.384521,4141.538574,4083.589844,4078.461426,4216.410156,450.000000,0.000000,13.000000,,,,0.000000,4.000000,2.000000,4.000000,4.000000,0.000000,50.000000,,,,,,,,,,,,,,,,,,,,,,,,,,,,,,,,
1698692531.754361,1698692531.754843,102.000000,0.000000,3986.666748,4145.641113,4079.487061,4068.718018,4216.410156,450.000000,0.000000,13.000000,,,,0.000000,4.000000,2.000000,4.000000,4.000000,0.000000,50.000000,,,,,,,,,,,,,,,,,,,,,,,,,,,,,,,,
1698692531.762241,1698692531.762823,103.000000,0.000000,3981.025635,4110.769043,4055.897461,4044.615479,4216.410156,0.000000,0.000000,13.000000,,,,0.000000,4.000000,2.000000,4.000000,4.000000,0.000000,50.000000,,,,,,,,,,,,,,,,,,,,,,,,,,,,,,,,
1698692531.770121,1698692531.770603,104.000000,0.000000,3962.564209,4098.461426,4031.281982,4015.897461,4216.410156,450.000000,0.000000,13.000000,,,,0.000000,4.000000,2.000000,4.000000,4.000000,0.000000,50.000000,,,,,,,,,,,,,,,,,,,,,,,,,,,,,,,,
1698692531.778001,1698692531.778583,105.000000,0.000000,3980.000000,4133.333496,4049.743652,4025.641113,4216.410156,450.000000,0.000000,13.000000,,,,0.000000,4.000000,2.000000,4.000000,4.000000,0.000000,50.000000,,,,,,,,,,,,,,,,,,,,,,,,,,,,,,,,
1698692531.785882,1698692531.786363,106.000000,0.000000,4034.871826,4168.205078,4094.871826,4072.307617,4216.410156,450.000000,0.000000,13.000000,,,,0.000000,4.000000,2.000000,4.000000,4.000000,0.000000,50.000000,,,,,,,,,,,,,,,,,,,,,,,,,,,,,,,,
1698692531.793762,1698692531.794344,107.000000,0.000000,4050.769287,4170.256348,4101.025879,4083.076904,4216.410156,0.000000,0.000000,13.000000,,,,0.000000,4.000000,2.000000,4.000000,4.000000,0.000000,50.000000,,,,,,,,,,,,,,,,,,,,,,,,,,,,,,,,
1698692531.801642,1698692531.802124,108.000000,0.000000,4040.000000,4151.794922,4095.384521,4069.743652,4216.410156,450.000000,0.000000,13.000000,,,,0.000000,4.000000,2.000000,4.000000,4.000000,0.000000,50.000000,,,,,,,,,,,,,,,,,,,,,,,,,,,,,,,,
1698692531.809522,1698692531.810104,109.000000,0.000000,4047.179443,4133.333496,4105.128418,4066.666748,4216.410156,450.000000,0.000000,13.000000,,,,0.000000,4.000000,2.000000,4.000000,4.000000,0.000000,50.000000,,,,,,,,9.433760,9.544065,7.896155,3.051625,2.220247,10.712436,4.871732,4.299383,3.013092,2.285512,15.551111,7.447257,7.289056,3.759489,2.576297,20.077837,16.040974,9.070622,3.632467,2.500578,0.003591,0.002530,0.002246,0.000915,0.000512
1698692531.817402,1698692531.817884,110.000000,0.000000,4050.256348,4139.487305,4106.666504,4051.281982,4216.410156,450.000000,0.000000,13.000000,,,,0.000000,4.000000,2.000000,4.000000,4.000000,0.000000,50.000000,,,,,,,,,,,,,,,,,,,,,,,,,,,,,,,,
1698692531.825283,1698692531.825865,111.000000,0.000000,4067.179443,4180.512695,4131.282227,4062.051270,4216.410156,0.000000,0.000000,13.000000,,,,0.000000,4.000000,2.000000,4.000000,4.000000,0.000000,50.000000,,,,,,,,,,,,,,,,,,,,,,,,,,,,,,,,
1698692531.833163,1698692531.833845,112.000000,0.000000,4063.589844,4164.102539,4131.282227,4070.256348,4216.410156,450.000000,0.000000,13.000000,,,,0.000000,4.000000,2.000000,4.000000,4.000000,0.000000,50.000000,,,,,,,,,,,,,,,,,,,,,,,,,,,,,,,,
1698692531.841043,1698692531.841825,113.000000,0.000000,4030.769287,4106.666504,4088.205078,4033.846191,4216.410156,450.000000,0.000000,13.000000,,,,0.000000,4.000000,2.000000,4.000000,4.000000,0.000000,50.000000,,,,,,,,,,,,,,,,,,,,,,,,,,,,,,,,
1698692531.848924,1698692531.849605,114.000000,0.000000,4036.410156,4102.563965,4073.846191,4010.256348,4216.410156,450.000000,0.000000,13.000000,,,,0.000000,4.000000,2.000000,4.000000,4.000000,0.000000,50.000000,,,,,,,,,,,,,,,,,,,,,,,,,,,,,,,,
1698692531.856804,1698692531.857585,115.000000,0.000000,4052.820557,4106.666504,4074.358887,4008.205078,4216.410156,0.000000,0.000000,13.000000,,,,0.000000,4.000000,2.000000,4.000000,4.000000,0.000000,50.000000,,,,,,,,,,,,,,,,,,,,,,,,,,,,,,,,
1698692531.864684,1698692531.865366,116.000000,0.000000,4057.948730,4096.410156,4063.076904,4003.076904,4216.410156,450.000000,0.000000,13.000000,,,,0.000000,4.000000,2.000000,4.000000,4.000000,0.000000,50.000000,,,,,,,,,,,,,,,,,,,,,,,,,,,,,,,,
1698692531.872564,1698692531.873146,117.000000,0.000000,4001.025635,4036.923096,3991.794922,3932.820557,4216.410156,450.000000,0.000000,13.000000,,,,0.000000,4.000000,2.000000,4.000000,4.000000,0.000000,50.000000,,,,,,,,,,,,,,,,,,,,,,,,,,,,,,,,
1698692531.880445,1698692531.880926,118.000000,0.000000,3899.487061,3944.615479,3900.512939,3827.179443,4216.410156,450.000000,0.000000,13.000000,,,,0.000000,4.000000,2.000000,4.000000,4.000000,0.000000,50.000000,,,,,,,,,,,,,,,,,,,,,,,,,,,,,,,,
1698692531.888325,1698692531.888706,119.000000,0.000000,3897.435791,3946.666748,3917.948730,3825.128174,4216.410156,0.000000,0.000000,13.000000,,,,0.000000,4.000000,2.000000,4.000000,4.000000,0.000000,50.000000,,,,,,,,,,,,,,,,,,,,,,,,,,,,,,,,
1698692531.896205,1698692531.896487,120.000000,0.000000,3953.333252,4004.102539,3974.358887,3869.743652,4216.410156,450.000000,0.000000,13.000000,,,,0.000000,4.000000,2.000000,4.000000,4.000000,0.000000,50.000000,,,,,,,,,,,,,,,,,,,,,,,,,,,,,,,,
1698692531.904085,1698692531.904267,121.000000,0.000000,3988.718018,4043.076904,3996.410156,3887.692383,4216.410156,450.000000,0.000000,13.000000,,,,0.000000,4.000000,2.000000,4.000000,4.000000,0.000000,50.000000,,,,,,,,,,,,,,,,,,,,,,,,,,,,,,,,
1698692531.911966,1698692531.912047,122.000000,0.000000,4023.076904,4065.641113,4019.487061,3920.000000,4216.410156,450.000000,0.000000,13.000000,,,,0.000000,4.000000,2.000000,4.000000,4.000000,0.000000,50.000000,,,,,,,,,,,,,,,,,,,,,,,,,,,,,,,,
1698692531.919846,1698692531.919828,123.000000,0.000000,4043.589844,4073.846191,4034.871826,3947.692383,4216.410156,0.000000,0.000000,13.000000,,,,0.000000,4.000000,2.000000,4.000000,4.000000,0.000000,50.000000,,,,,,,,,,,,,,,,,,,,,,,,,,,,,,,,
1698692531.927726,1698692531.927608,124.000000,0.000000,4032.307617,4067.692383,4022.051270,3934.871826,4216.410156,450.000000,0.000000,13.000000,,,,0.000000,4.000000,2.000000,4.000000,4.000000,0.000000,50.000000,,,,,,,,,,,,,,,,,,,,,,,,,,,,,,,,
1698692531.935606,1698692531.935388,125.000000,0.000000,4011.281982,4047.179443,4000.000000,3901.538574,4216.410156,450.000000,0.000000,13.000000,,,,0.000000,4.000000,2.000000,4.000000,4.000000,0.000000,50.000000,,,,,,,,9.735235,10.178681,7.955189,2.893714,2.063893,12.591352,5.083769,4.751152,2.805570,2.054604,17.209951,7.658297,5.917388,3.693139,2.325338,22.004238,13.280656,6.005904,3.539720,2.248486,0.003173,0.002586,0.002144,0.000645,0.000363
1698692531.943487,1698692531.943169,126.000000,0.000000,4031.794922,4065.641113,4011.794922,3905.128174,4216.410156,450.000000,0.000000,13.000000,,,,0.000000,4.000000,2.000000,4.000000,4.000000,0.000000,50.000000,,,,,,,,,,,,,,,,,,,,,,,,,,,,,,,,
1698692531.951367,1698692531.951149,127.000000,0.000000,4050.769287,4090.256348,4009.230713,3902.051270,4216.410156,227.000000,0.000000,13.000000,,,,0.000000,4.000000,2.000000,4.000000,4.000000,0.000000,50.000000,,,,,,,,,,,,,,,,,,,,,,,,,,,,,,,,
1698692531.959247,1698692531.959129,0.000000,0.000000,4041.025635,4088.205078,3994.871826,3875.897461,4216.410156,450.000000,0.000000,13.000000,,,,0.000000,4.000000,2.000000,4.000000,4.000000,0.000000,50.000000,,,,,,,,,,,,,,,,,,,,,,,,,,,,,,,,
1698692531.967127,1698692531.967109,1.000000,0.000000,4049.230713,4100.512695,4024.615479,3890.769287,4216.410156,450.000000,0.000000,13.000000,,,,0.000000,4.000000,2.000000,4.000000,4.000000,0.000000,50.000000,,,,,,,,,,,,,,,,,,,,,,,,,,,,,,,,
1698692531.975008,1698692531.975090,2.000000,0.000000,4035.384521,4084.102539,4025.641113,3882.564209,4216.410156,293.000000,0.000000,13.000000,,,,0.000000,2.000000,2.000000,4.000000,4.000000,0.000000,33.333332,,,,,,,,,,,,,,,,,,,,,,,,,,,,,,,,
1698692531.982888,1698692531.982870,3.000000,0.000000,4014.358887,4067.692383,4001.538574,3850.769287,4216.410156,450.000000,0.000000,13.000000,,,,0.000000,2.000000,2.000000,4.000000,4.000000,0.000000,33.333332,,,,,,,,,,,,,,,,,,,,,,,,,,,,,,,,
1698692531.990768,1698692531.990850,4.000000,0.000000,4016.410156,4075.897461,3998.974365,3850.769287,4216.410156,266.000000,0.000000,13.000000,,,,0.000000,2.000000,2.000000,4.000000,4.000000,0.000000,33.333332,,,,,,,,,,,,,,,,,,,,,,,,,,,,,,,,
1698692531.998649,1698692531.998630,5.000000,0.000000,3988.205078,4053.333252,3965.128174,3831.794922,4216.410156,450.000000,0.000000,13.000000,,,,0.000000,2.000000,2.000000,4.000000,4.000000,0.000000,33.333332,,,,,,,,,,,,,,,,,,,,,,,,,,,,,,,,
1698692532.006529,1698692532.006411,6.000000,0.000000,3960.000000,4020.512939,3915.384521,3792.307617,4216.410156,1023.000000,0.000000,13.000000,,,,0.000000,2.000000,2.000000,4.000000,4.000000,0.000000,33.333332,,,,,,,,,,,,,,,,,,,,,,,,,,,,,,,,
1698692532.014409,1698692532.014391,7.000000,0.000000,3965.641113,4020.512939,3912.307617,3787.179443,4216.410156,450.000000,0.000000,13.000000,,,,0.000000,2.000000,2.000000,4.000000,4.000000,0.000000,33.333332,,,,,,,,,,,,,,,,,,,,,,,,,,,,,,,,
1698692532.022289,1698692532.022371,8.000000,0.000000,3987.179443,4034.871826,3941.025635,3816.923096,4216.410156,450.000000,0.000000,13.000000,,,,0.000000,2.000000,2.000000,4.000000,4.000000,0.000000,33.333332,,,,,,,,,,,,,,,,,,,,,,,,,,,,,,,,
1698692532.030169,1698692532.030351,9.000000,0.000000,4013.333252,4043.076904,3965.641113,3844.615479,4216.410156,1023.000000,0.000000,13.000000,,,,0.000000,2.000000,2.000000,4.000000,4.000000,0.000000,33.333332,,,,,,,,,,,,,,,,,,,,,,,,,,,,,,,,
1698692532.038050,1698692532.038332,10.000000,0.000000,4031.794922,4063.589844,3982.564209,3851.281982,4216.410156,450.000000,0.000000,13.000000,,,,0.000000,2.000000,2.000000,4.000000,4.000000,0.000000,33.333332,,,,,,,,,,,,,,,,,,,,,,,,,,,,,,,,
1698692532.045930,1698692532.046312,11.000000,0.000000,4040.512939,4090.256348,3997.948730,3857.948730,4216.410156,0.000000,0.000000,13.000000,,,,0.000000,2.000000,2.000000,4.000000,4.000000,0.000000,33.333332,,,,,,,,,,,,,,,,,,,,,,,,,,,,,,,,
1698692532.053810,1698692532.054292,12.000000,0.000000,4045.641113,4092.307617,3996.410156,3863.076904,4216.410156,450.000000,0.000000,13.000000,,,,0.000000,2.000000,2.000000,4.000000,4.000000,0.000000,33.333332,,,,,,,,,,,,,,,,,,,,,,,,,,,,,,,,
1698692532.061690,1698692532.062273,13.000000,0.000000,4105.128418,4135.384766,4039.487061,3915.897461,4216.410156,450.000000,0.000000,13.000000,,,,0.000000,2.000000,2.000000,4.000000,4.000000,0.000000,33.333332,1.000000,33.333332,2.000000,2.000000,2.000000,3.000000,0.000000,10.003355,11.315209,8.870778,2.848653,1.904847,14.181275,5.511950,5.339179,2.649430,1.821272,18.076853,8.407977,5.675882,3.728729,2.083722,22.964045,11.882026,4.983140,3.527699,2.008232,0.002838,0.002617,0.002066,0.000468,0.000261
1698692532.069571,1698692532.070253,14.000000,0.000000,4164.102539,4192.820313,4089.743652,3979.487061,4216.410156,450.000000,0.000000,13.000000,,,,0.000000,2.000000,2.000000,4.000000,4.000000,0.000000,33.333332,,,,,,,,,,,,,,,,,,,,,,,,,,,,,,,,
1698692532.077451,1698692532.078233,15.000000,0.000000,4121.025879,4153.846191,4049.230713,3940.000000,4216.410156,0.000000,0.000000,13.000000,,,,0.000000,2.000000,2.000000,4.000000,4.000000,0.000000,33.333332,,,,,,,,,,,,,,,,,,,,,,,,,,,,,,,,
1698692532.085331,1698692532.086213,16.000000,0.000000,4081.538574,4121.025879,4028.718018,3905.641113,4216.410156,0.000000,0.000000,13.000000,,,,0.000000,2.000000,2.000000,4.000000,4.000000,0.000000,33.333332,,,,,,,,,,,,,,,,,,,,,,,,,,,,,,,,
1698692532.093212,1698692532.094194,17.000000,0.000000,4082.564209,4118.974121,4031.794922,3914.871826,4216.410156,0.000000,0.000000,13.000000,,,,0.000000,2.000000,2.000000,4.000000,4.000000,0.000000,33.333332,,,,,,,,,,,,,,,,,,,,,,,,,,,,,,,,
