title:relaxing music, start timestamp:1698691830.388127, stop timestamp:1698691890.932150, headset type:INSIGHT, headset serial:5A688E18, headset firmware:926, channels:53, sampling rate:eeg_128;pow_8, samples:7684      , version:2.2, 
Timestamp,OriginalTimestamp,EEG.Counter,EEG.Interpolated,EEG.AF3,EEG.T7,EEG.Pz,EEG.T8,EEG.AF4,EEG.RawCq,EEG.Battery,EEG.BatteryPercent,MarkerIndex,MarkerType,MarkerValueInt,EEG.MarkerHardware,CQ.AF3,CQ.T7,CQ.Pz,CQ.T8,CQ.AF4,CQ.Overall,EQ.SampleRateQuality,EQ.OVERALL,EQ.AF3,EQ.T7,EQ.Pz,EQ.T8,EQ.AF4,POW.AF3.Theta,POW.AF3.Alpha,POW.AF3.BetaL,POW.AF3.BetaH,POW.AF3.Gamma,POW.T7.Theta,POW.T7.Alpha,POW.T7.BetaL,POW.T7.BetaH,POW.T7.Gamma,POW.Pz.Theta,POW.Pz.Alpha,POW.Pz.BetaL,POW.Pz.BetaH,POW.Pz.Gamma,POW.T8.Theta,POW.T8.Alpha,POW.T8.BetaL,POW.T8.BetaH,POW.T8.Gamma,POW.AF4.Theta,POW.AF4.Alpha,POW.AF4.BetaL,POW.AF4.BetaH,POW.AF4.Gamma
1698691830.388127,1698691830.390335,59.000000,0.000000,3345.128174,3987.692383,4367.179688,4600.000000,4186.153809,0.000000,1.000000,28.000000,,,,0.000000,4.000000,4.000000,4.000000,4.000000,0.000000,66.666664,,,,,,,,,,,,,,,,,,,,,,,,,,,,,,,,
1698691830.396007,1698691830.398115,60.000000,0.000000,3397.435791,4024.615479,4412.820313,4633.333496,4186.153809,0.000000,1.000000,28.000000,,,,0.000000,4.000000,4.000000,4.000000,4.000000,0.000000,66.666664,,,,,,,,,,,,,,,,,,,,,,,,,,,,,,,,
1698691830.403887,1698691830.406095,61.000000,0.000000,3402.051270,4014.358887,4409.743652,4640.000000,4186.153809,0.000000,1.000000,28.000000,,,,0.000000,4.000000,4.000000,4.000000,4.000000,0.000000,66.666664,,,,,,,,458.069153,253.010071,73.991325,71.491417,38.806934,503.203278,215.619247,83.344536,57.565838,33.886284,668.256775,274.830109,108.511375,66.197861,33.398163,474.464508,237.219955,80.894722,50.515060,33.827446,0.151875,0.095587,0.167437,0.055870,0.070402
1698691830.411768,1698691830.414076,62.000000,0.000000,3365.641113,3987.692383,4387.179688,4624.615234,4186.153809,0.000000,1.000000,28.000000,,,,0.000000,4.000000,4.000000,4.000000,4.000000,0.000000,66.666664,,,,,,,,,,,,,,,,,,,,,,,,,,,,,,,,
1698691830.419648,1698691830.421856,63.000000,0.000000,3371.281982,3993.846191,4403.077148,4630.769043,4186.153809,0.000000,1.000000,28.000000,,,,0.000000,4.000000,4.000000,4.000000,4.000000,0.000000,66.666664,,,,,,,,,,,,,,,,,,,,,,,,,,,,,,,,
1698691830.427528,1698691830.429636,64.000000,0.000000,3426.153809,4030.769287,4440.000000,4663.589844,4186.153809,450.000000,1.000000,28.000000,,,,0.000000,4.000000,4.000000,4.000000,4.000000,0.000000,66.666664,,,,,,,,,,,,,,,,,,,,,,,,,,,,,,,,
1698691830.435408,1698691830.437617,65.000000,0.000000,3460.000000,4059.487061,4463.589844,4691.282227,4186.153809,450.000000,1.000000,28.000000,,,,0.000000,4.000000,4.000000,4.000000,4.000000,0.000000,66.666664,,,,,,,,,,,,,,,,,,,,,,,,,,,,,,,,
1698691830.443289,1698691830.445397,66.000000,0.000000,3428.205078,4030.769287,4451.282227,4667.179688,4185.128418,1023.000000,1.000000,28.000000,,,,0.000000,4.000000,4.000000,4.000000,4.000000,0.000000,66.666664,,,,,,,,,,,,,,,,,,,,,,,,,,,,,,,,
1698691830.451169,1698691830.453177,67.000000,0.000000,3407.692383,4014.358887,4436.922852,4641.538574,4186.666504,450.000000,1.000000,28.000000,,,,0.000000,4.000000,4.000000,4.000000,4.000000,0.000000,66.666664,,,,,,,,,,,,,,,,,,,,,,,,,,,,,,,,
1698691830.459049,1698691830.460958,68.000000,0.000000,3408.718018,4028.718018,4418.974121,4637.436035,4187.179688,1023.000000,1.000000,28.000000,,,,0.000000,4.000000,4.000000,4.000000,4.000000,0.000000,66.666664,,,,,,,,,,,,,,,,,,,,,,,,,,,,,,,,
1698691830.466929,1698691830.468738,69.000000,0.000000,3383.589844,4006.153809,4405.641113,4619.487305,4183.077148,450.000000,1.000000,28.000000,,,,0.000000,4.000000,4.000000,4.000000,4.000000,0.000000,66.666664,,,,,,,,,,,,,,,,,,,,,,,,,,,,,,,,
1698691830.474810,1698691830.476518,70.000000,0.000000,3371.794922,3987.692383,4416.922852,4614.871582,4189.230957,1023.000000,1.000000,28.000000,,,,0.000000,4.000000,4.000000,4.000000,4.000000,0.000000,66.666664,,,,,,,,,,,,,,,,,,,,,,,,,,,,,,,,
1698691830.482690,1698691830.484499,71.000000,0.000000,3396.923096,4004.102539,4430.769043,4633.333496,4198.974121,450.000000,1.000000,28.000000,,,,0.000000,4.000000,4.000000,4.000000,4.000000,0.000000,66.666664,,,,,,,,,,,,,,,,,,,,,,,,,,,,,,,,
1698691830.490570,1698691830.492479,72.000000,0.000000,3455.384521,4055.384521,4474.871582,4685.128418,4192.307617,450.000000,1.000000,28.000000,,,,0.000000,4.000000,4.000000,4.000000,4.000000,0.000000,66.666664,,,,,,,,,,,,,,,,,,,,,,,,,,,,,,,,
1698691830.498450,1698691830.500259,73.000000,0.000000,3471.794922,4067.692383,4493.333496,4708.717773,4183.077148,1023.000000,1.000000,28.000000,,,,0.000000,4.000000,4.000000,4.000000,4.000000,0.000000,66.666664,,,,,,,,,,,,,,,,,,,,,,,,,,,,,,,,
1698691830.506331,1698691830.508039,74.000000,0.000000,3417.948730,4014.358887,4442.563965,4651.794922,4186.666504,450.000000,1.000000,28.000000,,,,0.000000,4.000000,4.000000,4.000000,4.000000,0.000000,66.666664,,,,,,,,,,,,,,,,,,,,,,,,,,,,,,,,
1698691830.514211,1698691830.516020,75.000000,0.000000,3427.692383,4020.512939,4440.512695,4633.333496,4188.717773,0.000000,1.000000,28.000000,,,,0.000000,4.000000,4.000000,4.000000,4.000000,0.000000,66.666664,,,,,,,,,,,,,,,,,,,,,,,,,,,,,,,,
1698691830.522091,1698691830.524000,76.000000,0.000000,3493.333252,4090.256348,4498.974121,4689.743652,4185.128418,450.000000,1.000000,28.000000,,,,0.000000,4.000000,4.000000,4.000000,4.000000,0.000000,66.666664,,,,,,,,,,,,,,,,,,,,,,,,,,,,,,,,
1698691830.529971,1698691830.531980,77.000000,0.000000,3538.974365,4141.538574,4540.000000,4734.358887,4186.153809,450.000000,1.000000,28.000000,,,,0.000000,4.000000,4.000000,4.000000,4.000000,0.000000,66.666664,1.000000,0.000000,0.000000,0.000000,0.000000,0.000000,0.000000,461.200256,253.819489,73.528145,73.474426,39.867416,517.175232,223.945129,81.448555,60.179901,35.012814,726.504456,291.364227,112.435776,69.086006,34.385792,485.441711,246.384338,81.699249,52.657059,35.126568,0.138024,0.081736,0.138516,0.051948,0.064666
1698691830.537852,1698691830.539961,78.000000,0.000000,3579.487061,4151.794922,4553.333496,4737.948730,4186.666504,450.000000,1.000000,28.000000,,,,0.000000,4.000000,4.000000,4.000000,4.000000,0.000000,66.666664,,,,,,,,,,,,,,,,,,,,,,,,,,,,,,,,
1698691830.545732,1698691830.547941,79.000000,0.000000,3605.641113,4145.641113,4568.717773,4738.974121,4186.153809,0.000000,1.000000,28.000000,,,,0.000000,4.000000,4.000000,4.000000,4.000000,0.000000,66.666664,,,,,,,,,,,,,,,,,,,,,,,,,,,,,,,,
1698691830.553612,1698691830.555722,80.000000,0.000000,3626.153809,4176.410156,4612.820313,4773.333496,4188.205078,450.000000,1.000000,28.000000,,,,0.000000,4.000000,4.000000,4.000000,4.000000,0.000000,66.666664,,,,,,,,,,,,,,,,,,,,,,,,,,,,,,,,
1698691830.561493,1698691830.563502,81.000000,0.000000,3632.820557,4192.820313,4633.846191,4787.692383,4187.692383,450.000000,1.000000,28.000000,,,,0.000000,4.000000,4.000000,4.000000,4.000000,0.000000,66.666664,,,,,,,,,,,,,,,,,,,,,,,,,,,,,,,,
1698691830.569373,1698691830.571282,82.000000,0.000000,3637.948730,4180.512695,4629.230957,4783.589844,4185.128418,450.000000,1.000000,28.000000,,,,0.000000,4.000000,4.000000,4.000000,4.000000,0.000000,66.666664,,,,,,,,,,,,,,,,,,,,,,,,,,,,,,,,
1698691830.577253,1698691830.579262,83.000000,0.000000,3665.128174,4190.769043,4641.538574,4805.128418,4185.128418,0.000000,1.000000,28.000000,,,,0.000000,4.000000,4.000000,4.000000,4.000000,0.000000,66.666664,,,,,,,,,,,,,,,,,,,,,,,,,,,,,,,,
1698691830.585133,1698691830.587043,84.000000,0.000000,3678.461426,4205.128418,4640.000000,4809.743652,4187.692383,450.000000,1.000000,28.000000,,,,0.000000,4.000000,4.000000,4.000000,4.000000,0.000000,66.666664,,,,,,,,,,,,,,,,,,,,,,,,,,,,,,,,
1698691830.593013,1698691830.595023,85.000000,0.000000,3686.666748,4219.487305,4637.948730,4806.666504,4185.641113,450.000000,1.000000,28.000000,,,,0.000000,4.000000,4.000000,4.000000,4.000000,0.000000,66.666664,,,,,,,,,,,,,,,,,,,,,,,,,,,,,,,,
1698691830.600894,1698691830.602803,86.000000,0.000000,3690.769287,4217.436035,4640.512695,4805.641113,4186.153809,450.000000,1.000000,28.000000,,,,0.000000,4.000000,4.000000,4.000000,4.000000,0.000000,66.666664,,,,,,,,,,,,,,,,,,,,,,,,,,,,,,,,
1698691830.608774,1698691830.610784,87.000000,0.000000,3697.948730,4221.538574,4653.846191,4809.743652,4198.461426,0.000000,1.000000,28.000000,,,,0.000000,4.000000,4.000000,4.000000,4.000000,0.000000,66.666664,,,,,,,,,,,,,,,,,,,,,,,,,,,,,,,,
1698691830.616654,1698691830.618564,88.000000,0.000000,3738.974365,4266.666504,4692.820313,4850.769043,4201.538574,450.000000,1.000000,28.000000,,,,0.000000,4.000000,4.000000,4.000000,4.000000,0.000000,66.666664,,,,,,,,,,,,,,,,,,,,,,,,,,,,,,,,
1698691830.624534,1698691830.626544,89.000000,0.000000,3786.153809,4289.230957,4711.794922,4883.589844,4188.205078,450.000000,1.000000,28.000000,,,,0.000000,4.000000,4.000000,4.000000,4.000000,0.000000,66.666664,,,,,,,,,,,,,,,,,,,,,,,,,,,,,,,,
1698691830.632415,1698691830.634325,90.000000,0.000000,3814.871826,4285.128418,4709.230957,4887.179688,4187.179688,450.000000,1.000000,28.000000,,,,0.000000,4.000000,4.000000,4.000000,4.000000,0.000000,66.666664,,,,,,,,,,,,,,,,,,,,,,,,,,,,,,,,
1698691830.640295,1698691830.642305,91.000000,0.000000,3827.179443,4299.487305,4721.025879,4888.717773,4198.461426,0.000000,1.000000,28.000000,,,,0.000000,4.000000,4.000000,4.000000,4.000000,0.000000,66.666664,,,,,,,,,,,,,,,,,,,,,,,,,,,,,,,,
1698691830.648175,1698691830.650085,92.000000,0.000000,3851.281982,4324.102539,4752.820313,4904.615234,4199.487305,450.000000,1.000000,28.000000,,,,0.000000,4.000000,4.000000,4.000000,4.000000,0.000000,66.666664,,,,,,,,,,,,,,,,,,,,,,,,,,,,,,,,
1698691830.656056,1698691830.658066,93.000000,0.000000,3888.718018,4336.410156,4778.461426,4929.743652,4194.871582,450.000000,1.000000,28.000000,,,,0.000000,4.000000,4.000000,4.000000,4.000000,0.000000,66.666664,,,,,,,,411.291779,223.546631,64.171722,66.134811,35.669037,460.118530,202.152527,69.428879,54.935143,31.599504,672.031494,269.237518,102.583267,62.957642,30.862396,429.806549,222.957687,72.849586,47.697388,31.867798,0.117477,0.064671,0.109810,0.048540,0.059740
1698691830.663936,1698691830.665846,94.000000,0.000000,3891.794922,4309.743652,4769.230957,4927.179688,4197.436035,450.000000,1.000000,28.000000,,,,0.000000,4.000000,4.000000,4.000000,4.000000,0.000000,66.666664,,,,,,,,,,,,,,,,,,,,,,,,,,,,,,,,
1698691830.671816,1698691830.673826,95.000000,0.000000,3890.769287,4309.743652,4763.589844,4920.000000,4198.974121,0.000000,1.000000,28.000000,,,,0.000000,4.000000,4.000000,4.000000,4.000000,0.000000,66.666664,,,,,,,,,,,,,,,,,,,,,,,,,,,,,,,,
1698691830.679696,1698691830.681607,96.000000,0.000000,3915.384521,4350.769043,4782.051270,4926.666504,4198.461426,450.000000,1.000000,28.000000,,,,0.000000,4.000000,4.000000,4.000000,4.000000,0.000000,66.666664,,,,,,,,,,,,,,,,,,,,,,,,,,,,,,,,
1698691830.687577,1698691830.689587,97.000000,0.000000,3933.846191,4375.384766,4807.179688,4936.410156,4201.025879,450.000000,1.000000,28.000000,,,,0.000000,4.000000,4.000000,4.000000,4.000000,0.000000,66.666664,,,,,,,,,,,,,,,,,,,,,,,,,,,,,,,,
1698691830.695457,1698691830.697367,98.000000,0.000000,3945.128174,4373.333496,4821.025879,4953.333496,4196.410156,450.000000,1.000000,28.000000,,,,0.000000,4.000000,4.000000,4.000000,4.000000,0.000000,66.666664,,,,,,,,,,,,,,,,,,,,,,,,,,,,,,,,
1698691830.703337,1698691830.705248,99.000000,0.000000,3932.820557,4350.769043,4797.948730,4935.897461,4190.769043,0.000000,1.000000,28.000000,,,,0.000000,4.000000,4.000000,4.000000,4.000000,0.000000,66.666664,,,,,,,,,,,,,,,,,,,,,,,,,,,,,,,,
1698691830.711217,1698691830.713028,100.000000,0.000000,3925.641113,4340.512695,4775.384766,4907.179688,4193.846191,450.000000,1.000000,28.000000,,,,0.000000,4.000000,4.000000,4.000000,4.000000,0.000000,66.666664,,,,,,,,,,,,,,,,,,,,,,,,,,,,,,,,
1698691830.719098,1698691830.720809,101.000000,0.000000,3922.564209,4324.102539,4752.820313,4891.282227,4198.461426,450.000000,1.000000,28.000000,,,,0.000000,4.000000,4.000000,4.000000,4.000000,0.000000,66.666664,,,,,,,,,,,,,,,,,,,,,,,,,,,,,,,,
1698691830.726978,1698691830.728589,102.000000,0.000000,3910.256348,4307.692383,4724.615234,4872.307617,4197.436035,450.000000,1.000000,28.000000,,,,0.000000,4.000000,4.000000,4.000000,4.000000,0.000000,66.666664,,,,,,,,,,,,,,,,,,,,,,,,,,,,,,,,
1698691830.734858,1698691830.736369,103.000000,0.000000,3948.718018,4342.563965,4752.307617,4896.410156,4197.948730,0.000000,1.000000,28.000000,,,,0.000000,4.000000,4.000000,4.000000,4.000000,0.000000,66.666664,,,,,,,,,,,,,,,,,,,,,,,,,,,,,,,,
1698691830.742738,1698691830.744149,104.000000,0.000000,3976.410156,4356.922852,4774.871582,4910.256348,4199.487305,450.000000,1.000000,28.000000,,,,0.000000,4.000000,4.000000,4.000000,4.000000,0.000000,66.666664,,,,,,,,,,,,,,,,,,,,,,,,,,,,,,,,
1698691830.750619,1698691830.751930,105.000000,0.000000,3978.974365,4344.615234,4780.512695,4903.077148,4197.436035,450.000000,1.000000,28.000000,,,,0.000000,4.000000,4.000000,4.000000,4.000000,0.000000,66.666664,,,,,,,,,,,,,,,,,,,,,,,,,,,,,,,,
1698691830.758499,1698691830.759910,106.000000,0.000000,4027.179443,4371.282227,4816.410156,4930.769043,4197.948730,450.000000,1.000000,28.000000,,,,0.000000,4.000000,4.000000,4.000000,4.000000,0.000000,66.666664,,,,,,,,,,,,,,,,,,,,,,,,,,,,,,,,
1698691830.766379,1698691830.767690,107.000000,0.000000,4059.487061,4412.307617,4835.897461,4943.589844,4198.974121,0.000000,1.000000,28.000000,,,,0.000000,4.000000,4.000000,4.000000,4.000000,0.000000,66.666664,,,,,,,,,,,,,,,,,,,,,,,,,,,,,,,,
1698691830.774259,1698691830.775471,108.000000,0.000000,4069.230713,4443.077148,4841.025879,4948.717773,4198.461426,450.000000,1.000000,28.000000,,,,0.000000,4.000000,4.000000,4.000000,4.000000,0.000000,66.666664,,,,,,,,,,,,,,,,,,,,,,,,,,,,,,,,
1698691830.782140,1698691830.783251,109.000000,0.000000,4119.487305,4459.487305,4861.538574,4978.461426,4198.974121,450.000000,1.000000,28.000000,,,,0.000000,4.000000,4.000000,4.000000,4.000000,0.000000,66.666664,,,,,,,,336.182922,171.463806,48.740456,52.009804,27.744556,365.524445,157.981323,51.014397,43.620667,24.875996,560.365662,215.835388,81.775879,49.952488,24.050022,344.388428,175.029251,56.905521,37.448437,25.225479,0.087977,0.049131,0.088121,0.046092,0.055896
1698691830.790020,1698691830.791031,110.000000,0.000000,4183.589844,4486.153809,4896.410156,5013.846191,4198.974121,450.000000,1.000000,28.000000,,,,0.000000,4.000000,4.000000,4.000000,4.000000,0.000000,66.666664,,,,,,,,,,,,,,,,,,,,,,,,,,,,,,,,
1698691830.797900,1698691830.798811,111.000000,0.000000,4174.358887,4510.769043,4907.692383,5013.846191,4198.974121,0.000000,1.000000,28.000000,,,,0.000000,4.000000,4.000000,4.000000,4.000000,0.000000,66.666664,,,,,,,,,,,,,,,,,,,,,,,,,,,,,,,,
1698691830.805781,1698691830.806591,112.000000,0.000000,4135.897461,4492.307617,4891.794922,4989.230957,4198.974121,450.000000,1.000000,28.000000,,,,0.000000,4.000000,4.000000,4.000000,4.000000,0.000000,66.666664,,,,,,,,,,,,,,,,,,,,,,,,,,,,,,,,
1698691830.813661,1698691830.814572,113.000000,0.000000,4178.461426,4492.307617,4901.025879,5005.128418,4198.974121,450.000000,1.000000,28.000000,,,,0.000000,4.000000,4.000000,4.000000,4.000000,0.000000,66.666664,,,,,,,,,,,,,,,,,,,,,,,,,,,,,,,,
1698691830.821541,1698691830.822552,114.000000,0.000000,4226.666504,4510.769043,4913.333496,5028.205078,4198.974121,450.000000,1.000000,28.000000,,,,0.000000,4.000000,4.000000,4.000000,4.000000,0.000000,66.666664,,,,,,,,,,,,,,,,,,,,,,,,,,,,,,,,
1698691830.829421,1698691830.830533,115.000000,0.000000,4228.717773,4525.128418,4917.436035,5028.717773,4198.974121,0.000000,1.000000,28.000000,,,,0.000000,4.000000,4.000000,4.000000,4.000000,0.000000,66.666664,,,,,,,,,,,,,,,,,,,,,,,,,,,,,,,,
1698691830.837302,1698691830.838514,116.000000,0.000000,4232.307617,4527.179688,4912.307617,5023.077148,4198.974121,450.000000,1.000000,28.000000,,,,0.000000,4.000000,4.000000,4.000000,4.000000,0.000000,66.666664,,,,,,,,,,,,,,,,,,,,,,,,,,,,,,,,
1698691830.845182,1698691830.846494,117.000000,0.000000,4221.025879,4498.461426,4880.000000,4989.230957,4198.974121,450.000000,1.000000,28.000000,,,,0.000000,4.000000,4.000000,4.000000,4.000000,0.000000,66.666664,,,,,,,,,,,,,,,,,,,,,,,,,,,,,,,,
1698691830.853062,1698691830.854475,118.000000,0.000000,4211.282227,4482.051270,4854.871582,4959.487305,4200.000000,450.000000,1.000000,28.000000,,,,0.000000,4.000000,4.000000,4.000000,4.000000,0.000000,66.666664,,,,,,,,,,,,,,,,,,,,,,,,,,,,,,,,
1698691830.860942,1698691830.862255,119.000000,0.000000,4194.358887,4453.333496,4818.461426,4928.205078,4200.000000,0.000000,1.000000,28.000000,,,,0.000000,4.000000,4.000000,4.000000,4.000000,0.000000,66.666664,,,,,,,,,,,,,,,,,,,,,,,,,,,,,,,,
1698691830.868822,1698691830.870035,120.000000,0.000000,4187.692383,4420.512695,4805.641113,4908.717773,4200.000000,450.000000,1.000000,28.000000,,,,0.000000,4.000000,4.000000,4.000000,4.000000,0.000000,66.666664,,,,,,,,,,,,,,,,,,,,,,,,,,,,,,,,
1698691830.876703,1698691830.878015,121.000000,0.000000,4225.128418,4463.589844,4862.563965,4937.948730,4200.000000,450.000000,1.000000,28.000000,,,,0.000000,4.000000,4.000000,4.000000,4.000000,0.000000,66.666664,,,,,,,,,,,,,,,,,,,,,,,,,,,,,,,,
1698691830.884583,1698691830.885996,122.000000,0.000000,4242.563965,4508.717773,4904.102539,4953.333496,4200.000000,450.000000,1.000000,28.000000,,,,0.000000,4.000000,4.000000,4.000000,4.000000,0.000000,66.666664,,,,,,,,,,,,,,,,,,,,,,,,,,,,,,,,
1698691830.892463,1698691830.893976,123.000000,0.000000,4253.846191,4512.820313,4908.205078,4949.230957,4200.000000,0.000000,1.000000,28.000000,,,,0.000000,4.000000,4.000000,4.000000,4.000000,0.000000,66.666664,,,,,,,,,,,,,,,,,,,,,,,,,,,,,,,,
1698691830.900344,1698691830.901757,124.000000,0.000000,4287.692383,4512.820313,4910.769043,4952.820313,4200.000000,450.000000,1.000000,28.000000,,,,0.000000,4.000000,4.000000,4.000000,4.000000,0.000000,66.666664,,,,,,,,,,,,,,,,,,,,,,,,,,,,,,,,
1698691830.908224,1698691830.909737,125.000000,0.000000,4308.717773,4533.333496,4924.615234,4965.128418,4200.000000,450.000000,1.000000,28.000000,,,,0.000000,4.000000,4.000000,4.000000,4.000000,0.000000,66.666664,,,,,,,,257.535583,113.479759,32.035782,35.688419,18.728954,254.539230,106.174339,32.054955,29.935276,17.080734,396.161957,149.198425,57.059139,34.363884,16.171520,246.991898,118.697357,39.174030,25.390097,17.398088,0.063269,0.037904,0.075761,0.044742,0.053339
1698691830.916104,1698691830.917517,126.000000,0.000000,4333.846191,4574.358887,4960.512695,5009.230957,4200.000000,450.000000,1.000000,28.000000,,,,0.000000,4.000000,4.000000,4.000000,4.000000,0.000000,66.666664,,,,,,,,,,,,,,,,,,,,,,,,,,,,,,,,
1698691830.923984,1698691830.925498,127.000000,0.000000,4374.358887,4609.230957,4991.794922,5056.922852,4200.000000,230.000000,1.000000,28.000000,,,,0.000000,4.000000,4.000000,4.000000,4.000000,0.000000,66.666664,,,,,,,,,,,,,,,,,,,,,,,,,,,,,,,,
1698691830.931865,1698691830.933278,0.000000,0.000000,4394.358887,4615.384766,4987.179688,5063.589844,4200.000000,450.000000,1.000000,28.000000,,,,0.000000,4.000000,4.000000,4.000000,4.000000,0.000000,66.666664,,,,,,,,,,,,,,,,,,,,,,,,,,,,,,,,
1698691830.939745,1698691830.941258,1.000000,0.000000,4368.717773,4580.512695,4944.615234,5025.641113,4200.000000,450.000000,1.000000,28.000000,,,,0.000000,4.000000,4.000000,4.000000,4.000000,0.000000,66.666664,,,,,,,,,,,,,,,,,,,,,,,,,,,,,,,,
1698691830.947625,1698691830.949039,2.000000,0.000000,4370.769043,4574.358887,4935.384766,5025.128418,4200.000000,1023.000000,1.000000,28.000000,,,,0.000000,4.000000,4.000000,4.000000,4.000000,0.000000,66.666664,,,,,,,,,,,,,,,,,,,,,,,,,,,,,,,,
1698691830.955505,1698691830.957019,3.000000,0.000000,4427.179688,4633.846191,4976.410156,5087.692383,4200.000000,450.000000,1.000000,28.000000,,,,0.000000,4.000000,4.000000,4.000000,4.000000,0.000000,66.666664,,,,,,,,,,,,,,,,,,,,,,,,,,,,,,,,
1698691830.963386,1698691830.964799,4.000000,0.000000,4429.743652,4640.000000,4978.461426,5088.205078,4200.000000,1023.000000,1.000000,28.000000,,,,0.000000,4.000000,4.000000,4.000000,4.000000,0.000000,66.666664,,,,,,,,,,,,,,,,,,,,,,,,,,,,,,,,
1698691830.971266,1698691830.972780,5.000000,0.000000,4409.230957,4601.025879,4964.102539,5045.641113,4200.000000,450.000000,1.000000,28.000000,,,,0.000000,4.000000,4.000000,4.000000,4.000000,0.000000,66.666664,,,,,,,,,,,,,,,,,,,,,,,,,,,,,,,,
1698691830.979146,1698691830.980560,6.000000,0.000000,4428.717773,4594.871582,4969.743652,5044.102539,4200.512695,1023.000000,1.000000,28.000000,,,,0.000000,4.000000,4.000000,4.000000,4.000000,0.000000,66.666664,,,,,,,,,,,,,,,,,,,,,,,,,,,,,,,,
1698691830.987026,1698691830.988540,7.000000,0.000000,4413.333496,4576.410156,4946.153809,5024.615234,4201.025879,450.000000,1.000000,28.000000,,,,0.000000,4.000000,4.000000,4.000000,4.000000,0.000000,66.666664,,,,,,,,,,,,,,,,,,,,,,,,,,,,,,,,
1698691830.994907,1698691830.996321,8.000000,0.000000,4372.307617,4549.743652,4920.000000,4989.230957,4201.025879,450.000000,1.000000,28.000000,,,,0.000000,4.000000,4.000000,4.000000,4.000000,0.000000,66.666664,,,,,,,,,,,,,,,,,,,,,,,,,,,,,,,,
1698691831.002787,1698691831.004301,9.000000,0.000000,4365.128418,4555.897461,4920.000000,4986.153809,4201.025879,1023.000000,1.000000,28.000000,,,,0.000000,4.000000,4.000000,4.000000,4.000000,0.000000,66.666664,,,,,,,,,,,,,,,,,,,,,,,,,,,,,,,,
1698691831.010667,1698691831.012081,10.000000,0.000000,4396.410156,4586.666504,4933.846191,5012.307617,4201.025879,450.000000,1.000000,28.000000,,,,0.000000,4.000000,4.000000,4.000000,4.000000,0.000000,66.666664,,,,,,,,,,,,,,,,,,,,,,,,,,,,,,,,
1698691831.018547,1698691831.019862,11.000000,0.000000,4401.025879,4580.512695,4932.820313,5014.358887,4201.025879,0.000000,1.000000,28.000000,,,,0.000000,4.000000,4.000000,4.000000,4.000000,0.000000,66.666664,,,,,,,,,,,,,,,,,,,,,,,,,,,,,,,,
1698691831.026428,1698691831.027642,12.000000,0.000000,4368.717773,4543.589844,4912.820313,4991.282227,4201.025879,450.000000,1.000000,28.000000,,,,0.000000,4.000000,4.000000,4.000000,4.000000,0.000000,66.666664,,,,,,,,,,,,,,,,,,,,,,,,,,,,,,,,
1698691831.034308,1698691831.035622,13.000000,0.000000,4362.051270,4535.384766,4890.256348,4988.205078,4201.025879,450.000000,1.000000,28.000000,,,,0.000000,4.000000,4.000000,4.000000,4.000000,0.000000,66.666664,1.000000,0.000000,0.000000,0.000000,0.000000,0.000000,0.000000,200.238266,64.680931,18.148670,21.689980,11.128794,162.700439,60.844688,17.060686,17.778358,10.412183,253.029083,87.963142,34.782761,20.652052,9.421111,165.125763,68.904877,23.952328,15.040836,10.579491,0.054147,0.031360,0.070529,0.044721,0.052852
1698691831.042188,1698691831.043403,14.000000,0.000000,4355.897461,4518.974121,4861.538574,4973.333496,4201.025879,450.000000,1.000000,28.000000,,,,0.000000,4.000000,4.000000,4.000000,4.000000,0.000000,66.666664,,,,,,,,,,,,,,,,,,,,,,,,,,,,,,,,
1698691831.050069,1698691831.051383,15.000000,0.000000,4386.666504,4543.589844,4893.333496,4993.333496,4201.025879,0.000000,1.000000,28.000000,,,,0.000000,4.000000,4.000000,4.000000,4.000000,0.000000,66.666664,,,,,,,,,,,,,,,,,,,,,,,,,,,,,,,,
1698691831.057949,1698691831.059363,16.000000,0.000000,4444.102539,4596.922852,4952.820313,5047.692383,4201.025879,0.000000,1.000000,28.000000,,,,0.000000,4.000000,4.000000,4.000000,4.000000,0.000000,66.666664,,,,,,,,,,,,,,,,,,,,,,,,,,,,,,,,
1698691831.065829,1698691831.067144,17.000000,0.000000,4435.897461,4586.666504,4950.769043,5046.153809,4201.025879,0.000000,1.000000,28.000000,,,,0.000000,4.000000,4.000000,4.000000,4.000000,0.000000,66.666664,,,,,,,,,,,,,,,,,,,,,,,,,,,,,,,,
1698691831.073709,1698691831.074924,18.000000,0.000000,4416.922852,4570.256348,4942.051270,5028.717773,4201.025879,0.000000,1.000000,28.000000,,,,0.000000,4.000000,4.000000,4.000000,4.000000,0.000000,66.666664,,,,,,,,,,,,,,,,,,,,,,,,,,,,,,,,
1698691831.081590,1698691831.082704,19.000000,0.000000,4416.922852,4570.256348,4931.794922,5016.410156,4201.025879,0.000000,1.000000,28.000000,,,,0.000000,4.000000,4.000000,4.000000,4.000000,0.000000,66.666664,,,,,,,,,,,,,,,,,,,,,,,,,,,,,,,,
1698691831.089470,1698691831.090485,20.000000,0.000000,4412.307617,4557.948730,4898.461426,4993.333496,4201.025879,0.000000,1.000000,28.000000,,,,0.000000,4.000000,4.000000,4.000000,4.000000,0.000000,66.666664,,,,,,,,,,,,,,,,,,,,,,,,,,,,,,,,
1698691831.097350,1698691831.098265,21.000000,0.000000,4423.589844,4572.307617,4891.282227,4994.871582,4201.025879,0.000000,1.000000,28.000000,,,,0.000000,4.000000,4.000000,4.000000,4.000000,0.000000,66.666664,,,,,,,,,,,,,,,,,,,,,,,,,,,,,,,,
1698691831.105230,1698691831.106045,22.000000,0.000000,4448.717773,4613.333496,4928.717773,5022.051270,4201.025879,0.000000,1.000000,28.000000,,,,0.000000,4.000000,4.000000,4.000000,4.000000,0.000000,66.666664,,,,,,,,,,,,,,,,,,,,,,,,,,,,,,,,
1698691831.113110,1698691831.113825,23.000000,0.000000,4478.461426,4642.051270,4971.794922,5056.410156,4201.025879,0.000000,1.000000,28.000000,,,,0.000000,4.000000,4.000000,4.000000,4.000000,0.000000,66.666664,,,,,,,,,,,,,,,,,,,,,,,,,,,,,,,,
1698691831.120991,1698691831.121605,24.000000,0.000000,4456.410156,4621.538574,4951.282227,5048.205078,4201.025879,0.000000,1.000000,28.000000,,,,0.000000,4.000000,4.000000,4.000000,4.000000,0.000000,66.666664,,,,,,,,,,,,,,,,,,,,,,,,,,,,,,,,
1698691831.128871,1698691831.129586,25.000000,0.000000,4398.461426,4590.769043,4909.743652,5008.717773,4201.025879,0.000000,1.000000,28.000000,,,,0.000000,4.000000,4.000000,4.000000,4.000000,0.000000,66.666664,,,,,,,,,,,,,,,,,,,,,,,,,,,,,,,,
1698691831.136751,1698691831.137566,26.000000,0.000000,4424.102539,4615.384766,4928.717773,5019.487305,4201.025879,0.000000,1.000000,28.000000,,,,0.000000,4.000000,4.000000,4.000000,4.000000,0.000000,66.666664,,,,,,,,,,,,,,,,,,,,,,,,,,,,,,,,
1698691831.144632,1698691831.145547,27.000000,0.000000,4521.025879,4654.358887,4977.436035,5064.615234,4200.512695,0.000000,1.000000,28.000000,,,,0.000000,4.000000,4.000000,4.000000,4.000000,0.000000,66.666664,,,,,,,,,,,,,,,,,,,,,,,,,,,,,,,,
1698691831.152512,1698691831.153527,28.000000,0.000000,4609.230957,4691.282227,5013.333496,5098.461426,4201.025879,0.000000,1.000000,28.000000,,,,0.000000,4.000000,4.000000,4.000000,4.000000,0.000000,66.666664,,,,,,,,,,,,,,,,,,,,,,,,,,,,,,,,
1698691831.160392,1698691831.161507,29.000000,0.000000,4660.000000,4707.692383,4999.487305,5087.692383,4202.051270,0.000000,1.000000,28.000000,,,,0.000000,4.000000,4.000000,4.000000,4.000000,0.000000,66.666664,,,,,,,,171.203812,33.488747,9.378480,12.615184,6.287580,103.719635,30.482298,8.199515,9.625465,6.101552,142.754242,45.518112,19.357134,11.599854,5.021969,113.927208,35.095352,13.808752,8.456380,6.028556,0.060639,0.027814,0.068369,0.046317,0.055111
1698691831.168272,1698691831.169488,30.000000,0.000000,4725.128418,4720.000000,5000.000000,5089.230957,4202.051270,0.000000,1.000000,28.000000,,,,0.000000,4.000000,4.000000,4.000000,4.000000,0.000000,66.666664,,,,,,,,,,,,,,,,,,,,,,,,,,,,,,,,
1698691831.176153,1698691831.177268,31.000000,0.000000,4792.820313,4769.230957,5065.128418,5150.256348,4202.051270,0.000000,1.000000,28.000000,,,,0.000000,4.000000,4.000000,4.000000,4.000000,0.000000,66.666664,,,,,,,,,,,,,,,,,,,,,,,,,,,,,,,,
1698691831.184033,1698691831.185048,32.000000,0.000000,4713.846191,4765.128418,5069.743652,5144.102539,4203.077148,0.000000,1.000000,28.000000,,,,0.000000,4.000000,4.000000,4.000000,4.000000,0.000000,66.666664,,,,,,,,,,,,,,,,,,,,,,,,,,,,,,,,
1698691831.191913,1698691831.193028,33.000000,0.000000,4580.512695,4779.487305,5069.230957,5132.307617,4203.589844,0.000000,1.000000,28.000000,,,,0.000000,4.000000,4.000000,4.000000,4.000000,0.000000,66.666664,,,,,,,,,,,,,,,,,,,,,,,,,,,,,,,,
1698691831.199793,1698691831.200809,34.000000,0.000000,4570.769043,4873.846191,5154.871582,5218.974121,4203.589844,0.000000,1.000000,28.000000,,,,0.000000,4.000000,4.000000,4.000000,4.000000,0.000000,66.666664,,,,,,,,,,,,,,,,,,,,,,,,,,,,,,,,
1698691831.207674,1698691831.208789,35.000000,0.000000,4556.410156,4929.230957,5221.025879,5281.538574,4204.102539,0.000000,1.000000,28.000000,,,,0.000000,4.000000,4.000000,4.000000,4.000000,0.000000,66.666664,,,,,,,,,,,,,,,,,,,,,,,,,,,,,,,,
1698691831.215554,1698691831.216569,36.000000,0.000000,4331.282227,4908.717773,5205.128418,5264.102539,4203.077148,0.000000,1.000000,28.000000,,,,0.000000,4.000000,4.000000,4.000000,4.000000,0.000000,66.666664,,,,,,,,,,,,,,,,,,,,,,,,,,,,,,,,
1698691831.223434,1698691831.224550,37.000000,0.000000,4021.025635,4863.589844,5154.871582,5228.205078,4202.563965,0.000000,1.000000,28.000000,,,,0.000000,4.000000,4.000000,4.000000,4.000000,0.000000,66.666664,,,,,,,,,,,,,,,,,,,,,,,,,,,,,,,,
1698691831.231314,1698691831.232330,38.000000,0.000000,3916.410156,4847.179688,5122.051270,5203.077148,4202.563965,0.000000,1.000000,28.000000,,,,0.000000,4.000000,4.000000,4.000000,4.000000,0.000000,66.666664,,,,,,,,,,,,,,,,,,,,,,,,,,,,,,,,
1698691831.239195,1698691831.240310,39.000000,0.000000,3964.615479,4847.179688,5109.230957,5176.922852,4203.077148,0.000000,1.000000,28.000000,,,,0.000000,4.000000,4.000000,4.000000,4.000000,0.000000,66.666664,,,,,,,,,,,,,,,,,,,,,,,,,,,,,,,,
1698691831.247075,1698691831.248091,40.000000,0.000000,3976.410156,4849.230957,5115.384766,5171.794922,4202.563965,0.000000,1.000000,28.000000,,,,0.000000,4.000000,4.000000,4.000000,4.000000,0.000000,66.666664,,,,,,,,,,,,,,,,,,,,,,,,,,,,,,,,
1698691831.254955,1698691831.256071,41.000000,0.000000,3969.230713,4855.384766,5110.769043,5186.666504,4202.563965,0.000000,1.000000,28.000000,,,,0.000000,4.000000,4.000000,4.000000,4.000000,0.000000,66.666664,,,,,,,,,,,,,,,,,,,,,,,,,,,,,,,,
1698691831.262835,1698691831.263851,42.000000,0.000000,3965.641113,4857.436035,5084.102539,5176.410156,4202.563965,0.000000,1.000000,28.000000,,,,0.000000,4.000000,4.000000,4.000000,4.000000,0.000000,66.666664,,,,,,,,,,,,,,,,,,,,,,,,,,,,,,,,
1698691831.270716,1698691831.271832,43.000000,0.000000,3968.718018,4867.692383,5094.871582,5175.384766,4202.563965,0.000000,1.000000,28.000000,,,,0.000000,4.000000,4.000000,4.000000,4.000000,0.000000,66.666664,,,,,,,,,,,,,,,,,,,,,,,,,,,,,,,,
1698691831.278596,1698691831.279612,44.000000,0.000000,3972.307617,4863.589844,5115.384766,5187.179688,4202.563965,0.000000,1.000000,28.000000,,,,0.000000,4.000000,4.000000,4.000000,4.000000,0.000000,66.666664,,,,,,,,,,,,,,,,,,,,,,,,,,,,,,,,
1698691831.286476,1698691831.287592,45.000000,0.000000,3930.256348,4838.974121,5098.461426,5177.948730,4202.563965,0.000000,1.000000,28.000000,,,,0.000000,4.000000,4.000000,4.000000,4.000000,0.000000,66.666664,,,,,,,,155.600113,20.299486,5.343062,8.431474,4.059819,75.032104,15.678037,4.698569,5.793365,4.084752,84.927635,24.245512,11.488321,7.461838,2.915212,84.990379,17.920822,8.579453,5.671868,3.739486,0.080687,0.025667,0.066777,0.049730,0.059979
1698691831.294356,1698691831.295373,46.000000,0.000000,3888.718018,4838.974121,5092.820313,5182.051270,4202.563965,0.000000,1.000000,28.000000,,,,0.000000,4.000000,4.000000,4.000000,4.000000,0.000000,66.666664,,,,,,,,,,,,,,,,,,,,,,,,,,,,,,,,
1698691831.302237,1698691831.303353,47.000000,0.000000,3902.564209,4871.794922,5132.820313,5215.384766,4202.563965,0.000000,1.000000,28.000000,,,,0.000000,4.000000,4.000000,4.000000,4.000000,0.000000,66.666664,,,,,,,,,,,,,,,,,,,,,,,,,,,,,,,,
1698691831.310117,1698691831.311133,48.000000,0.000000,3928.718018,4918.974121,5180.512695,5245.128418,4202.563965,0.000000,1.000000,28.000000,,,,0.000000,4.000000,4.000000,4.000000,4.000000,0.000000,66.666664,,,,,,,,,,,,,,,,,,,,,,,,,,,,,,,,
1698691831.317997,1698691831.319114,49.000000,0.000000,3905.641113,4931.282227,5182.051270,5233.846191,4202.563965,0.000000,1.000000,28.000000,,,,0.000000,4.000000,4.000000,4.000000,4.000000,0.000000,66.666664,,,,,,,,,,,,,,,,,,,,,,,,,,,,,,,,
1698691831.325878,1698691831.326894,50.000000,0.000000,3876.923096,4918.974121,5162.051270,5201.025879,4202.563965,0.000000,1.000000,28.000000,,,,0.000000,4.000000,4.000000,4.000000,4.000000,0.000000,66.666664,,,,,,,,,,,,,,,,,,,,,,,,,,,,,,,,
1698691831.333758,1698691831.334874,51.000000,0.000000,3919.487061,4960.000000,5180.512695,5214.871582,4202.563965,0.000000,1.000000,28.000000,,,,0.000000,4.000000,4.000000,4.000000,4.000000,0.000000,66.666664,,,,,,,,,,,,,,,,,,,,,,,,,,,,,,,,
1698691831.341638,1698691831.342655,52.000000,0.000000,3948.718018,4988.717773,5190.769043,5228.717773,4202.563965,0.000000,1.000000,28.000000,,,,0.000000,4.000000,4.000000,4.000000,4.000000,0.000000,66.666664,,,,,,,,,,,,,,,,,,,,,,,,,,,,,,,,
1698691831.349518,1698691831.350435,53.000000,0.000000,3911.281982,4953.846191,5170.256348,5201.025879,4202.563965,0.000000,1.000000,28.000000,,,,0.000000,4.000000,4.000000,4.000000,4.000000,0.000000,66.666664,,,,,,,,,,,,,,,,,,,,,,,,,,,,,,,,
1698691831.357399,1698691831.358215,54.000000,0.000000,3860.512939,4902.563965,5151.282227,5164.615234,4202.563965,0.000000,1.000000,28.000000,,,,0.000000,4.000000,4.000000,4.000000,4.000000,0.000000,66.666664,,,,,,,,,,,,,,,,,,,,,,,,,,,,,,,,
1698691831.365279,1698691831.365996,55.000000,0.000000,3836.923096,4871.794922,5136.922852,5141.025879,4202.563965,0.000000,1.000000,28.000000,,,,0.000000,4.000000,4.000000,4.000000,4.000000,0.000000,66.666664,,,,,,,,,,,,,,,,,,,,,,,,,,,,,,,,
1698691831.373159,1698691831.373776,56.000000,0.000000,3859.487061,4884.102539,5144.615234,5156.922852,4202.563965,0.000000,1.000000,28.000000,,,,0.000000,4.000000,4.000000,4.000000,4.000000,0.000000,66.666664,,,,,,,,,,,,,,,,,,,,,,,,,,,,,,,,
1698691831.381039,1698691831.381556,57.000000,0.000000,3855.384521,4890.256348,5149.743652,5161.538574,4202.563965,0.000000,1.000000,28.000000,,,,0.000000,4.000000,4.000000,4.000000,4.000000,0.000000,66.666664,,,,,,,,,,,,,,,,,,,,,,,,,,,,,,,,
1698691831.388919,1698691831.389336,58.000000,0.000000,3854.871826,4906.666504,5162.563965,5167.179688,4202.563965,0.000000,1.000000,28.000000,,,,0.000000,4.000000,4.000000,4.000000,4.000000,0.000000,66.666664,,,,,,,,,,,,,,,,,,,,,,,,,,,,,,,,
1698691831.396800,1698691831.397117,59.000000,0.000000,3914.871826,4955.897461,5187.179688,5200.512695,4202.563965,0.000000,1.000000,28.000000,,,,0.000000,4.000000,4.000000,4.000000,4.000000,0.000000,66.666664,,,,,,,,,,,,,,,,,,,,,,,,,,,,,,,,
1698691831.404680,1698691831.404897,60.000000,0.000000,3892.307617,4923.077148,5140.000000,5153.846191,4202.563965,0.000000,1.000000,28.000000,,,,0.000000,4.000000,4.000000,4.000000,4.000000,0.000000,66.666664,,,,,,,,,,,,,,,,,,,,,,,,,,,,,,,,
1698691831.412560,1698691831.412677,61.000000,0.000000,3806.153809,4847.179688,5076.410156,5089.230957,4202.563965,0.000000,1.000000,28.000000,,,,0.000000,4.000000,4.000000,4.000000,4.000000,0.000000,66.666664,,,,,,,,156.952835,21.901508,4.208122,7.384434,3.397725,67.841713,11.183875,3.951446,4.955642,3.440388,62.698936,18.213539,8.831230,6.568398,2.217219,76.897438,12.161513,6.397040,5.294989,2.861327,0.101237,0.024036,0.065240,0.053772,0.065703
1698691831.420441,1698691831.420457,62.000000,0.000000,3804.102539,4836.922852,5076.410156,5109.743652,4202.563965,0.000000,1.000000,28.000000,,,,0.000000,4.000000,4.000000,4.000000,4.000000,0.000000,66.666664,,,,,,,,,,,,,,,,,,,,,,,,,,,,,,,,
1698691831.428321,1698691831.428237,63.000000,0.000000,3853.333252,4869.743652,5100.512695,5146.153809,4202.563965,0.000000,1.000000,28.000000,,,,0.000000,4.000000,4.000000,4.000000,4.000000,0.000000,66.666664,,,,,,,,,,,,,,,,,,,,,,,,,,,,,,,,
1698691831.436201,1698691831.436018,64.000000,0.000000,3881.025635,4896.410156,5121.025879,5162.563965,4202.563965,450.000000,1.000000,28.000000,,,,0.000000,4.000000,4.000000,4.000000,4.000000,0.000000,66.666664,,,,,,,,,,,,,,,,,,,,,,,,,,,,,,,,
1698691831.444081,1698691831.443998,65.000000,0.000000,3890.256348,4904.615234,5140.512695,5174.871582,4202.563965,450.000000,1.000000,28.000000,,,,0.000000,4.000000,4.000000,4.000000,4.000000,0.000000,66.666664,,,,,,,,,,,,,,,,,,,,,,,,,,,,,,,,
1698691831.451962,1698691831.451978,66.000000,0.000000,3915.384521,4927.179688,5164.102539,5188.717773,4202.563965,1023.000000,1.000000,28.000000,,,,0.000000,4.000000,4.000000,4.000000,4.000000,0.000000,66.666664,,,,,,,,,,,,,,,,,,,,,,,,,,,,,,,,
1698691831.459842,1698691831.459959,67.000000,0.000000,3939.487061,4945.641113,5168.717773,5182.563965,4202.563965,450.000000,1.000000,28.000000,,,,0.000000,4.000000,4.000000,4.000000,4.000000,0.000000,66.666664,,,,,,,,,,,,,,,,,,,,,,,,,,,,,,,,
1698691831.467722,1698691831.467939,68.000000,0.000000,3962.051270,4955.897461,5179.487305,5179.487305,4202.563965,1023.000000,1.000000,28.000000,,,,0.000000,4.000000,4.000000,4.000000,4.000000,0.000000,66.666664,,,,,,,,,,,,,,,,,,,,,,,,,,,,,,,,
1698691831.475603,1698691831.475719,69.000000,0.000000,3979.487061,4976.410156,5209.230957,5198.974121,4202.563965,450.000000,1.000000,28.000000,,,,0.000000,4.000000,4.000000,4.000000,4.000000,0.000000,66.666664,,,,,,,,,,,,,,,,,,,,,,,,,,,,,,,,
1698691831.483483,1698691831.483699,70.000000,0.000000,3965.128174,4962.051270,5200.000000,5191.794922,4202.563965,1023.000000,1.000000,28.000000,,,,0.000000,4.000000,4.000000,4.000000,4.000000,0.000000,66.666664,,,,,,,,,,,,,,,,,,,,,,,,,,,,,,,,
1698691831.491363,1698691831.491680,71.000000,0.000000,3989.743652,4953.846191,5192.820313,5192.820313,4202.563965,450.000000,1.000000,28.000000,,,,0.000000,4.000000,4.000000,4.000000,4.000000,0.000000,66.666664,,,,,,,,,,,,,,,,,,,,,,,,,,,,,,,,
1698691831.499243,1698691831.499660,72.000000,0.000000,4021.025635,4955.897461,5192.820313,5199.487305,4202.563965,450.000000,1.000000,28.000000,,,,0.000000,4.000000,4.000000,4.000000,4.000000,0.000000,66.666664,,,,,,,,,,,,,,,,,,,,,,,,,,,,,,,,
1698691831.507123,1698691831.507640,73.000000,0.000000,4002.051270,4943.589844,5175.384766,5187.692383,4203.077148,1023.000000,1.000000,28.000000,,,,0.000000,4.000000,4.000000,4.000000,4.000000,0.000000,66.666664,,,,,,,,,,,,,,,,,,,,,,,,,,,,,,,,
1698691831.515004,1698691831.515420,74.000000,0.000000,4031.281982,4982.563965,5201.538574,5227.692383,4203.589844,450.000000,1.000000,28.000000,,,,0.000000,4.000000,4.000000,4.000000,4.000000,0.000000,66.666664,,,,,,,,,,,,,,,,,,,,,,,,,,,,,,,,
1698691831.522884,1698691831.523401,75.000000,0.000000,4105.641113,5042.051270,5250.769043,5281.538574,4203.077148,0.000000,1.000000,28.000000,,,,0.000000,4.000000,4.000000,4.000000,4.000000,0.000000,66.666664,,,,,,,,,,,,,,,,,,,,,,,,,,,,,,,,
1698691831.530764,1698691831.531181,76.000000,0.000000,4130.256348,5029.743652,5249.230957,5268.717773,4203.077148,450.000000,1.000000,28.000000,,,,0.000000,4.000000,4.000000,4.000000,4.000000,0.000000,66.666664,,,,,,,,,,,,,,,,,,,,,,,,,,,,,,,,
1698691831.538644,1698691831.539161,77.000000,0.000000,4095.384521,4984.615234,5210.256348,5220.512695,4205.128418,450.000000,1.000000,28.000000,,,,0.000000,4.000000,4.000000,4.000000,4.000000,0.000000,66.666664,1.000000,0.000000,0.000000,0.000000,0.000000,0.000000,0.000000,170.382370,37.778412,5.295269,7.786942,3.437472,65.047729,11.281946,4.108931,5.512823,3.225832,57.152107,19.055380,8.699503,7.014038,2.047366,69.825493,12.012216,5.555666,5.848220,2.522996,0.114420,0.022209,0.062334,0.055738,0.068849
1698691831.546525,1698691831.546942,78.000000,0.000000,4083.589844,4996.922852,5206.666504,5216.410156,4202.051270,450.000000,1.000000,28.000000,,,,0.000000,4.000000,4.000000,4.000000,4.000000,0.000000,66.666664,,,,,,,,,,,,,,,,,,,,,,,,,,,,,,,,
1698691831.554405,1698691831.554922,79.000000,0.000000,4107.692383,5019.487305,5220.000000,5234.358887,4203.077148,0.000000,1.000000,28.000000,,,,0.000000,4.000000,4.000000,4.000000,4.000000,0.000000,66.666664,,,,,,,,,,,,,,,,,,,,,,,,,,,,,,,,
1698691831.562285,1698691831.562702,80.000000,0.000000,4080.512939,4960.000000,5173.846191,5196.410156,4211.794922,450.000000,1.000000,28.000000,,,,0.000000,4.000000,4.000000,4.000000,4.000000,0.000000,66.666664,,,,,,,,,,,,,,,,,,,,,,,,,,,,,,,,
1698691831.570166,1698691831.570683,81.000000,0.000000,4057.948730,4925.128418,5146.153809,5174.358887,4210.769043,450.000000,1.000000,28.000000,,,,0.000000,4.000000,4.000000,4.000000,4.000000,0.000000,66.666664,,,,,,,,,,,,,,,,,,,,,,,,,,,,,,,,
1698691831.578046,1698691831.578463,82.000000,0.000000,4089.230713,4947.692383,5162.563965,5188.717773,4204.102539,450.000000,1.000000,28.000000,,,,0.000000,4.000000,4.000000,4.000000,4.000000,0.000000,66.666664,,,,,,,,,,,,,,,,,,,,,,,,,,,,,,,,
1698691831.585926,1698691831.586443,83.000000,0.000000,4109.230957,4931.282227,5156.922852,5171.282227,4204.102539,0.000000,1.000000,28.000000,,,,0.000000,4.000000,4.000000,4.000000,4.000000,0.000000,66.666664,,,,,,,,,,,,,,,,,,,,,,,,,,,,,,,,
1698691831.593806,1698691831.594224,84.000000,0.000000,4129.743652,4929.230957,5167.179688,5167.692383,4201.538574,450.000000,1.000000,28.000000,,,,0.000000,4.000000,4.000000,4.000000,4.000000,0.000000,66.666664,,,,,,,,,,,,,,,,,,,,,,,,,,,,,,,,
1698691831.601687,1698691831.602204,85.000000,0.000000,4149.230957,4949.743652,5178.461426,5169.743652,4203.077148,450.000000,1.000000,28.000000,,,,0.000000,4.000000,4.000000,4.000000,4.000000,0.000000,66.666664,,,,,,,,,,,,,,,,,,,,,,,,,,,,,,,,
1698691831.609567,1698691831.609984,86.000000,0.000000,4153.333496,4962.051270,5173.333496,5153.846191,4207.179688,450.000000,1.000000,28.000000,,,,0.000000,4.000000,4.000000,4.000000,4.000000,0.000000,66.666664,,,,,,,,,,,,,,,,,,,,,,,,,,,,,,,,
1698691831.617447,1698691831.617965,87.000000,0.000000,4162.563965,4986.666504,5188.205078,5157.436035,4208.717773,0.000000,1.000000,28.000000,,,,0.000000,4.000000,4.000000,4.000000,4.000000,0.000000,66.666664,,,,,,,,,,,,,,,,,,,,,,,,,,,,,,,,
1698691831.625327,1698691831.625745,88.000000,0.000000,4151.282227,4974.358887,5181.025879,5145.641113,4208.717773,450.000000,1.000000,28.000000,,,,0.000000,4.000000,4.000000,4.000000,4.000000,0.000000,66.666664,,,,,,,,,,,,,,,,,,,,,,,,,,,,,,,,
1698691831.633208,1698691831.633725,89.000000,0.000000,4152.307617,4937.436035,5162.051270,5129.743652,4210.769043,450.000000,1.000000,28.000000,,,,0.000000,4.000000,4.000000,4.000000,4.000000,0.000000,66.666664,,,,,,,,,,,,,,,,,,,,,,,,,,,,,,,,
1698691831.641088,1698691831.641506,90.000000,0.000000,4177.948730,4923.077148,5167.179688,5132.307617,4210.769043,450.000000,1.000000,28.000000,,,,0.000000,4.000000,4.000000,4.000000,4.000000,0.000000,66.666664,,,,,,,,,,,,,,,,,,,,,,,,,,,,,,,,
1698691831.648968,1698691831.649486,91.000000,0.000000,4195.384766,4941.538574,5182.563965,5147.179688,4207.179688,0.000000,1.000000,28.000000,,,,0.000000,4.000000,4.000000,4.000000,4.000000,0.000000,66.666664,,,,,,,,,,,,,,,,,,,,,,,,,,,,,,,,
1698691831.656848,1698691831.657266,92.000000,0.000000,4207.179688,4947.692383,5182.563965,5164.615234,4201.025879,450.000000,1.000000,28.000000,,,,0.000000,4.000000,4.000000,4.000000,4.000000,0.000000,66.666664,,,,,,,,,,,,,,,,,,,,,,,,,,,,,,,,
1698691831.664729,1698691831.665247,93.000000,0.000000,4216.922852,4921.025879,5167.692383,5157.436035,4204.102539,450.000000,1.000000,28.000000,,,,0.000000,4.000000,4.000000,4.000000,4.000000,0.000000,66.666664,,,,,,,,225.473312,68.518974,9.120019,9.150873,4.014256,70.369972,12.556986,4.671497,6.650286,3.042254,63.036434,20.810873,9.300656,7.756859,2.051785,72.375961,14.012995,5.199414,6.622352,2.371104,0.113285,0.019645,0.056278,0.053036,0.066023
1698691831.672609,1698691831.673027,94.000000,0.000000,4230.769043,4923.077148,5163.077148,5145.128418,4216.922852,450.000000,1.000000,28.000000,,,,0.000000,4.000000,4.000000,4.000000,4.000000,0.000000,66.666664,,,,,,,,,,,,,,,,,,,,,,,,,,,,,,,,
1698691831.680489,1698691831.681007,95.000000,0.000000,4244.615234,4945.641113,5167.692383,5149.743652,4216.922852,0.000000,1.000000,28.000000,,,,0.000000,4.000000,4.000000,4.000000,4.000000,0.000000,66.666664,,,,,,,,,,,,,,,,,,,,,,,,,,,,,,,,
1698691831.688369,1698691831.688788,96.000000,0.000000,4287.179688,4974.358887,5187.692383,5169.230957,4209.230957,450.000000,1.000000,28.000000,,,,0.000000,4.000000,4.000000,4.000000,4.000000,0.000000,66.666664,,,,,,,,,,,,,,,,,,,,,,,,,,,,,,,,
1698691831.696250,1698691831.696568,97.000000,0.000000,4323.589844,4980.512695,5184.615234,5177.948730,4216.410156,450.000000,1.000000,28.000000,,,,0.000000,4.000000,4.000000,4.000000,4.000000,0.000000,66.666664,,,,,,,,,,,,,,,,,,,,,,,,,,,,,,,,
1698691831.704130,1698691831.704348,98.000000,0.000000,4300.512695,4957.948730,5153.846191,5164.615234,4214.358887,450.000000,1.000000,28.000000,,,,0.000000,4.000000,4.000000,4.000000,4.000000,0.000000,66.666664,,,,,,,,,,,,,,,,,,,,,,,,,,,,,,,,
1698691831.712010,1698691831.712128,99.000000,0.000000,4317.436035,4984.615234,5185.641113,5192.820313,4201.025879,0.000000,1.000000,28.000000,,,,0.000000,4.000000,4.000000,4.000000,4.000000,0.000000,66.666664,,,,,,,,,,,,,,,,,,,,,,,,,,,,,,,,
1698691831.719890,1698691831.719909,100.000000,0.000000,4349.230957,5003.077148,5215.897461,5214.358887,4202.563965,450.000000,1.000000,28.000000,,,,0.000000,4.000000,4.000000,4.000000,4.000000,0.000000,66.666664,,,,,,,,,,,,,,,,,,,,,,,,,,,,,,,,
1698691831.727771,1698691831.727889,101.000000,0.000000,4314.871582,4945.641113,5172.820313,5170.769043,4215.897461,450.000000,1.000000,28.000000,,,,0.000000,4.000000,4.000000,4.000000,4.000000,0.000000,66.666664,,,,,,,,,,,,,,,,,,,,,,,,,,,,,,,,
1698691831.735651,1698691831.735869,102.000000,0.000000,4309.743652,4921.025879,5152.820313,5155.897461,4217.436035,450.000000,1.000000,28.000000,,,,0.000000,4.000000,4.000000,4.000000,4.000000,0.000000,66.666664,,,,,,,,,,,,,,,,,,,,,,,,,,,,,,,,
1698691831.743531,1698691831.743850,103.000000,0.000000,4331.794922,4937.436035,5170.769043,5179.487305,4211.282227,0.000000,1.000000,28.000000,,,,0.000000,4.000000,4.000000,4.000000,4.000000,0.000000,66.666664,,,,,,,,,,,,,,,,,,,,,,,,,,,,,,,,
1698691831.751411,1698691831.751830,104.000000,0.000000,4326.666504,4941.538574,5178.974121,5188.717773,4214.358887,450.000000,1.000000,28.000000,,,,0.000000,4.000000,4.000000,4.000000,4.000000,0.000000,66.666664,,,,,,,,,,,,,,,,,,,,,,,,,,,,,,,,
1698691831.759292,1698691831.759811,105.000000,0.000000,4325.641113,4937.436035,5175.897461,5185.641113,4216.410156,450.000000,1.000000,28.000000,,,,0.000000,4.000000,4.000000,4.000000,4.000000,0.000000,66.666664,,,,,,,,,,,,,,,,,,,,,,,,,,,,,,,,
1698691831.767172,1698691831.767791,106.000000,0.000000,4347.692383,4947.692383,5171.794922,5186.666504,4213.846191,450.000000,1.000000,28.000000,,,,0.000000,4.000000,4.000000,4.000000,4.000000,0.000000,66.666664,,,,,,,,,,,,,,,,,,,,,,,,,,,,,,,,
1698691831.775052,1698691831.775772,107.000000,0.000000,4382.563965,4968.205078,5180.000000,5200.512695,4213.846191,0.000000,1.000000,28.000000,,,,0.000000,4.000000,4.000000,4.000000,4.000000,0.000000,66.666664,,,,,,,,,,,,,,,,,,,,,,,,,,,,,,,,
1698691831.782932,1698691831.783752,108.000000,0.000000,4422.051270,4976.410156,5194.871582,5208.205078,4213.333496,450.000000,1.000000,28.000000,,,,0.000000,4.000000,4.000000,4.000000,4.000000,0.000000,66.666664,,,,,,,,,,,,,,,,,,,,,,,,,,,,,,,,
1698691831.790813,1698691831.791733,109.000000,0.000000,4493.333496,5017.436035,5242.051270,5249.230957,4212.307617,450.000000,1.000000,28.000000,,,,0.000000,4.000000,4.000000,4.000000,4.000000,0.000000,66.666664,,,,,,,,313.388641,111.808289,15.922768,11.429113,5.171916,70.928329,14.147087,5.697600,8.100165,2.862277,64.136131,21.743135,10.138700,8.536411,2.175300,70.129974,17.097147,5.199975,7.475399,2.353094,0.097567,0.016388,0.047129,0.045333,0.056132
1698691831.798693,1698691831.799714,110.000000,0.000000,4543.077148,5060.512695,5274.871582,5295.897461,4212.820313,450.000000,1.000000,28.000000,,,,0.000000,4.000000,4.000000,4.000000,4.000000,0.000000,66.666664,,,,,,,,,,,,,,,,,,,,,,,,,,,,,,,,
1698691831.806573,1698691831.807694,111.000000,0.000000,4514.358887,5029.743652,5234.871582,5271.282227,4212.820313,0.000000,1.000000,28.000000,,,,0.000000,4.000000,4.000000,4.000000,4.000000,0.000000,66.666664,,,,,,,,,,,,,,,,,,,,,,,,,,,,,,,,
1698691831.814453,1698691831.815674,112.000000,0.000000,4487.692383,4996.922852,5200.000000,5237.436035,4212.307617,450.000000,1.000000,28.000000,,,,0.000000,4.000000,4.000000,4.000000,4.000000,0.000000,66.666664,,,,,,,,,,,,,,,,,,,,,,,,,,,,,,,,
1698691831.822334,1698691831.823655,113.000000,0.000000,4493.333496,5003.077148,5203.589844,5240.512695,4213.333496,450.000000,1.000000,28.000000,,,,0.000000,4.000000,4.000000,4.000000,4.000000,0.000000,66.666664,,,,,,,,,,,,,,,,,,,,,,,,,,,,,,,,
1698691831.830214,1698691831.831435,114.000000,0.000000,4514.871582,5029.743652,5219.487305,5270.256348,4214.871582,450.000000,1.000000,28.000000,,,,0.000000,4.000000,4.000000,4.000000,4.000000,0.000000,66.666664,,,,,,,,,,,,,,,,,,,,,,,,,,,,,,,,
1698691831.838094,1698691831.839415,115.000000,0.000000,4526.666504,5040.000000,5212.307617,5282.563965,4216.922852,0.000000,1.000000,28.000000,,,,0.000000,4.000000,4.000000,4.000000,4.000000,0.000000,66.666664,,,,,,,,,,,,,,,,,,,,,,,,,,,,,,,,
1698691831.845975,1698691831.847196,116.000000,0.000000,4534.358887,5031.794922,5215.384766,5280.000000,4217.436035,450.000000,1.000000,28.000000,,,,0.000000,4.000000,4.000000,4.000000,4.000000,0.000000,66.666664,,,,,,,,,,,,,,,,,,,,,,,,,,,,,,,,
1698691831.853855,1698691831.855176,117.000000,0.000000,4581.538574,5060.512695,5273.333496,5320.000000,4215.897461,450.000000,1.000000,28.000000,,,,0.000000,4.000000,4.000000,4.000000,4.000000,0.000000,66.666664,,,,,,,,,,,,,,,,,,,,,,,,,,,,,,,,
1698691831.861735,1698691831.862956,118.000000,0.000000,4605.128418,5083.077148,5301.025879,5344.615234,4213.846191,450.000000,1.000000,28.000000,,,,0.000000,4.000000,4.000000,4.000000,4.000000,0.000000,66.666664,,,,,,,,,,,,,,,,,,,,,,,,,,,,,,,,
1698691831.869615,1698691831.870937,119.000000,0.000000,4613.846191,5081.025879,5307.692383,5355.384766,4213.846191,0.000000,1.000000,28.000000,,,,0.000000,4.000000,4.000000,4.000000,4.000000,0.000000,66.666664,,,,,,,,,,,,,,,,,,,,,,,,,,,,,,,,
1698691831.877496,1698691831.878717,120.000000,0.000000,4642.051270,5085.128418,5329.230957,5368.717773,4214.871582,450.000000,1.000000,28.000000,,,,0.000000,4.000000,4.000000,4.000000,4.000000,0.000000,66.666664,,,,,,,,,,,,,,,,,,,,,,,,,,,,,,,,
1698691831.885376,1698691831.886697,121.000000,0.000000,4639.487305,5076.922852,5312.820313,5340.000000,4214.871582,450.000000,1.000000,28.000000,,,,0.000000,4.000000,4.000000,4.000000,4.000000,0.000000,66.666664,,,,,,,,,,,,,,,,,,,,,,,,,,,,,,,,
1698691831.893256,1698691831.894478,122.000000,0.000000,4644.615234,5066.666504,5290.256348,5322.563965,4215.384766,450.000000,1.000000,28.000000,,,,0.000000,4.000000,4.000000,4.000000,4.000000,0.000000,66.666664,,,,,,,,,,,,,,,,,,,,,,,,,,,,,,,,
1698691831.901136,1698691831.902458,123.000000,0.000000,4646.153809,5037.948730,5263.077148,5308.205078,4215.897461,0.000000,1.000000,28.000000,,,,0.000000,4.000000,4.000000,4.000000,4.000000,0.000000,66.666664,,,,,,,,,,,,,,,,,,,,,,,,,,,,,,,,
1698691831.909016,1698691831.910238,124.000000,0.000000,4620.000000,5011.282227,5234.358887,5277.436035,4215.897461,450.000000,1.000000,28.000000,,,,0.000000,4.000000,4.000000,4.000000,4.000000,0.000000,66.666664,,,,,,,,,,,,,,,,,,,,,,,,,,,,,,,,
1698691831.916897,1698691831.918219,125.000000,0.000000,4650.769043,5048.205078,5267.692383,5309.743652,4215.897461,450.000000,1.000000,28.000000,,,,0.000000,4.000000,4.000000,4.000000,4.000000,0.000000,66.666664,,,,,,,,429.168640,158.894669,24.969824,14.215446,6.751811,75.839867,15.531054,7.447422,9.601953,2.760353,71.795845,21.472075,11.210627,9.163841,2.396229,72.485161,20.167351,5.695653,8.292706,2.449325,0.073236,0.013189,0.037861,0.036122,0.042074
1698691831.924777,1698691831.925999,126.000000,0.000000,4715.384766,5095.384766,5320.000000,5370.256348,4215.897461,450.000000,1.000000,28.000000,,,,0.000000,4.000000,4.000000,4.000000,4.000000,0.000000,66.666664,,,,,,,,,,,,,,,,,,,,,,,,,,,,,,,,
1698691831.932657,1698691831.933979,127.000000,0.000000,4714.358887,5093.333496,5310.256348,5369.743652,4215.897461,230.000000,1.000000,28.000000,,,,0.000000,4.000000,4.000000,4.000000,4.000000,0.000000,66.666664,,,,,,,,,,,,,,,,,,,,,,,,,,,,,,,,
1698691831.940538,1698691831.941760,0.000000,0.000000,4671.794922,5064.615234,5277.436035,5344.615234,4215.897461,450.000000,1.000000,28.000000,,,,0.000000,4.000000,4.000000,4.000000,4.000000,0.000000,66.666664,,,,,,,,,,,,,,,,,,,,,,,,,,,,,,,,
1698691831.948418,1698691831.949740,1.000000,0.000000,4667.692383,5048.205078,5275.384766,5350.256348,4215.897461,450.000000,1.000000,28.000000,,,,0.000000,4.000000,4.000000,4.000000,4.000000,0.000000,66.666664,,,,,,,,,,,,,,,,,,,,,,,,,,,,,,,,
1698691831.956298,1698691831.957520,2.000000,0.000000,4678.974121,5035.897461,5273.333496,5349.743652,4215.897461,1023.000000,1.000000,28.000000,,,,0.000000,4.000000,4.000000,4.000000,4.000000,0.000000,66.666664,,,,,,,,,,,,,,,,,,,,,,,,,,,,,,,,
1698691831.964178,1698691831.965501,3.000000,0.000000,4666.153809,5017.436035,5252.307617,5328.717773,4215.897461,450.000000,1.000000,28.000000,,,,0.000000,4.000000,4.000000,4.000000,4.000000,0.000000,66.666664,,,,,,,,,,,,,,,,,,,,,,,,,,,,,,,,
1698691831.972059,1698691831.973281,4.000000,0.000000,4660.000000,5001.025879,5238.974121,5327.179688,4215.897461,1023.000000,1.000000,28.000000,,,,0.000000,4.000000,4.000000,4.000000,4.000000,0.000000,66.666664,,,,,,,,,,,,,,,,,,,,,,,,,,,,,,,,
1698691831.979939,1698691831.981261,5.000000,0.000000,4656.410156,4968.205078,5211.282227,5306.153809,4216.410156,450.000000,1.000000,28.000000,,,,0.000000,4.000000,4.000000,4.000000,4.000000,0.000000,66.666664,,,,,,,,,,,,,,,,,,,,,,,,,,,,,,,,
1698691831.987819,1698691831.989042,6.000000,0.000000,4683.589844,4976.410156,5217.436035,5309.230957,4216.922852,1023.000000,1.000000,28.000000,,,,0.000000,4.000000,4.000000,4.000000,4.000000,0.000000,66.666664,,,,,,,,,,,,,,,,,,,,,,,,,,,,,,,,
1698691831.995700,1698691831.996822,7.000000,0.000000,4722.051270,5037.948730,5261.538574,5372.307617,4216.922852,450.000000,1.000000,28.000000,,,,0.000000,4.000000,4.000000,4.000000,4.000000,0.000000,66.666664,,,,,,,,,,,,,,,,,,,,,,,,,,,,,,,,
1698691832.003580,1698691832.004602,8.000000,0.000000,4692.307617,5029.743652,5245.128418,5366.666504,4216.410156,450.000000,1.000000,28.000000,,,,0.000000,4.000000,4.000000,4.000000,4.000000,0.000000,66.666664,,,,,,,,,,,,,,,,,,,,,,,,,,,,,,,,
1698691832.011460,1698691832.012383,9.000000,0.000000,4691.282227,5025.641113,5242.051270,5353.333496,4216.922852,1023.000000,1.000000,28.000000,,,,0.000000,4.000000,4.000000,4.000000,4.000000,0.000000,66.666664,,,,,,,,,,,,,,,,,,,,,,,,,,,,,,,,
1698691832.019340,1698691832.020163,10.000000,0.000000,4730.256348,5062.563965,5269.230957,5397.948730,4216.410156,450.000000,1.000000,28.000000,,,,0.000000,4.000000,4.000000,4.000000,4.000000,0.000000,66.666664,,,,,,,,,,,,,,,,,,,,,,,,,,,,,,,,
1698691832.027220,1698691832.027943,11.000000,0.000000,4685.128418,5027.692383,5225.128418,5371.282227,4216.410156,0.000000,1.000000,28.000000,,,,0.000000,4.000000,4.000000,4.000000,4.000000,0.000000,66.666664,,,,,,,,,,,,,,,,,,,,,,,,,,,,,,,,
1698691832.035101,1698691832.035723,12.000000,0.000000,4618.461426,4964.102539,5177.948730,5302.563965,4216.410156,450.000000,1.000000,28.000000,,,,0.000000,4.000000,4.000000,4.000000,4.000000,0.000000,66.666664,,,,,,,,,,,,,,,,,,,,,,,,,,,,,,,,
1698691832.042981,1698691832.043503,13.000000,0.000000,4624.102539,4964.102539,5199.487305,5315.384766,4216.410156,450.000000,1.000000,28.000000,,,,0.000000,4.000000,4.000000,4.000000,4.000000,0.000000,66.666664,1.000000,0.000000,0.000000,0.000000,0.000000,0.000000,0.000000,521.681152,196.432587,34.006069,16.634844,8.309912,73.031212,16.180647,10.066641,10.739685,2.775722,71.287086,19.552025,12.539800,9.383075,2.651355,67.822655,21.837862,6.699942,8.860349,2.593896,0.046097,0.011144,0.033174,0.031430,0.030088
1698691832.050861,1698691832.051283,14.000000,0.000000,4669.230957,5005.128418,5236.410156,5378.974121,4216.410156,450.000000,1.000000,28.000000,,,,0.000000,4.000000,4.000000,4.000000,4.000000,0.000000,66.666664,,,,,,,,,,,,,,,,,,,,,,,,,,,,,,,,
1698691832.058741,1698691832.059264,15.000000,0.000000,4681.025879,5017.436035,5228.205078,5384.615234,4216.410156,0.000000,1.000000,28.000000,,,,0.000000,4.000000,4.000000,4.000000,4.000000,0.000000,66.666664,,,,,,,,,,,,,,,,,,,,,,,,,,,,,,,,
1698691832.066622,1698691832.067244,16.000000,0.000000,4692.820313,5037.948730,5233.846191,5370.769043,4216.410156,0.000000,1.000000,28.000000,,,,0.000000,4.000000,4.000000,4.000000,4.000000,0.000000,66.666664,,,,,,,,,,,,,,,,,,,,,,,,,,,,,,,,
1698691832.074502,1698691832.075225,17.000000,0.000000,4761.025879,5093.333496,5284.615234,5414.358887,4216.922852,0.000000,1.000000,28.000000,,,,0.000000,4.000000,4.000000,4.000000,4.000000,0.000000,66.666664,,,,,,,,,,,,,,,,,,,,,,,,,,,,,,,,
1698691832.082382,1698691832.083205,18.000000,0.000000,4804.102539,5107.692383,5305.641113,5445.641113,4217.436035,0.000000,1.000000,28.000000,,,,0.000000,4.000000,4.000000,4.000000,4.000000,0.000000,66.666664,,,,,,,,,,,,,,,,,,,,,,,,,,,,,,,,
1698691832.090263,1698691832.090986,19.000000,0.000000,4805.641113,5115.897461,5306.153809,5452.820313,4217.948730,0.000000,1.000000,28.000000,,,,0.000000,4.000000,4.000000,4.000000,4.000000,0.000000,66.666664,,,,,,,,,,,,,,,,,,,,,,,,,,,,,,,,
1698691832.098143,1698691832.098966,20.000000,0.000000,4788.205078,5120.000000,5289.743652,5437.436035,4217.436035,0.000000,1.000000,28.000000,,,,0.000000,4.000000,4.000000,4.000000,4.000000,0.000000,66.666664,,,,,,,,,,,,,,,,,,,,,,,,,,,,,,,,
1698691832.106023,1698691832.106946,21.000000,0.000000,4732.820313,5062.563965,5243.077148,5371.794922,4217.436035,0.000000,1.000000,28.000000,,,,0.000000,4.000000,4.000000,4.000000,4.000000,0.000000,66.666664,,,,,,,,,,,,,,,,,,,,,,,,,,,,,,,,
1698691832.113903,1698691832.114927,22.000000,0.000000,4700.000000,5015.384766,5220.000000,5323.589844,4217.948730,0.000000,1.000000,28.000000,,,,0.000000,4.000000,4.000000,4.000000,4.000000,0.000000,66.666664,,,,,,,,,,,,,,,,,,,,,,,,,,,,,,,,
1698691832.121784,1698691832.122907,23.000000,0.000000,4686.666504,4996.922852,5208.717773,5300.000000,4217.436035,0.000000,1.000000,28.000000,,,,0.000000,4.000000,4.000000,4.000000,4.000000,0.000000,66.666664,,,,,,,,,,,,,,,,,,,,,,,,,,,,,,,,
1698691832.129664,1698691832.130887,24.000000,0.000000,4692.307617,5005.128418,5209.230957,5301.538574,4217.436035,0.000000,1.000000,28.000000,,,,0.000000,4.000000,4.000000,4.000000,4.000000,0.000000,66.666664,,,,,,,,,,,,,,,,,,,,,,,,,,,,,,,,
1698691832.137544,1698691832.138868,25.000000,0.000000,4729.230957,5046.153809,5239.487305,5347.179688,4217.436035,0.000000,1.000000,28.000000,,,,0.000000,4.000000,4.000000,4.000000,4.000000,0.000000,66.666664,,,,,,,,,,,,,,,,,,,,,,,,,,,,,,,,
1698691832.145424,1698691832.146648,26.000000,0.000000,4747.692383,5054.358887,5251.282227,5378.461426,4217.436035,0.000000,1.000000,28.000000,,,,0.000000,4.000000,4.000000,4.000000,4.000000,0.000000,66.666664,,,,,,,,,,,,,,,,,,,,,,,,,,,,,,,,
1698691832.153305,1698691832.154629,27.000000,0.000000,4761.538574,5027.692383,5233.846191,5376.922852,4217.436035,0.000000,1.000000,28.000000,,,,0.000000,4.000000,4.000000,4.000000,4.000000,0.000000,66.666664,,,,,,,,,,,,,,,,,,,,,,,,,,,,,,,,
1698691832.161185,1698691832.162609,28.000000,0.000000,4778.461426,5029.743652,5225.641113,5376.410156,4217.436035,0.000000,1.000000,28.000000,,,,0.000000,4.000000,4.000000,4.000000,4.000000,0.000000,66.666664,,,,,,,,,,,,,,,,,,,,,,,,,,,,,,,,
1698691832.169065,1698691832.170590,29.000000,0.000000,4786.153809,5070.769043,5251.282227,5401.025879,4217.436035,0.000000,1.000000,28.000000,,,,0.000000,4.000000,4.000000,4.000000,4.000000,0.000000,66.666664,,,,,,,,572.442200,212.430420,40.864574,17.749531,9.306483,69.013229,15.993799,13.430506,11.130189,2.892616,69.975372,16.557316,14.211536,9.019243,2.866099,61.601543,21.342588,8.168223,8.966387,2.711322,0.026333,0.011255,0.037875,0.036184,0.025839
1698691832.176945,1698691832.178570,30.000000,0.000000,4772.820313,5072.820313,5253.333496,5399.487305,4217.436035,0.000000,1.000000,28.000000,,,,0.000000,4.000000,4.000000,4.000000,4.000000,0.000000,66.666664,,,,,,,,,,,,,,,,,,,,,,,,,,,,,,,,
1698691832.184826,1698691832.186551,31.000000,0.000000,4761.538574,5037.948730,5226.666504,5359.487305,4217.436035,0.000000,1.000000,28.000000,,,,0.000000,4.000000,4.000000,4.000000,4.000000,0.000000,66.666664,,,,,,,,,,,,,,,,,,,,,,,,,,,,,,,,
1698691832.192706,1698691832.194331,32.000000,0.000000,4779.487305,5056.410156,5255.897461,5375.897461,4217.436035,0.000000,1.000000,28.000000,,,,0.000000,4.000000,4.000000,4.000000,4.000000,0.000000,66.666664,,,,,,,,,,,,,,,,,,,,,,,,,,,,,,,,
1698691832.200586,1698691832.202311,33.000000,0.000000,4771.794922,5066.666504,5284.102539,5405.128418,4217.436035,0.000000,1.000000,28.000000,,,,0.000000,4.000000,4.000000,4.000000,4.000000,0.000000,66.666664,,,,,,,,,,,,,,,,,,,,,,,,,,,,,,,,
1698691832.208466,1698691832.210092,34.000000,0.000000,4767.692383,5058.461426,5283.077148,5405.128418,4217.436035,0.000000,1.000000,28.000000,,,,0.000000,4.000000,4.000000,4.000000,4.000000,0.000000,66.666664,,,,,,,,,,,,,,,,,,,,,,,,,,,,,,,,
1698691832.216347,1698691832.218072,35.000000,0.000000,4797.436035,5097.436035,5315.897461,5429.743652,4217.436035,0.000000,1.000000,28.000000,,,,0.000000,4.000000,4.000000,4.000000,4.000000,0.000000,66.666664,,,,,,,,,,,,,,,,,,,,,,,,,,,,,,,,
1698691832.224227,1698691832.225852,36.000000,0.000000,4796.410156,5120.000000,5335.897461,5440.512695,4217.436035,0.000000,1.000000,28.000000,,,,0.000000,4.000000,4.000000,4.000000,4.000000,0.000000,66.666664,,,,,,,,,,,,,,,,,,,,,,,,,,,,,,,,
1698691832.232107,1698691832.233833,37.000000,0.000000,4767.692383,5095.384766,5311.282227,5416.410156,4217.436035,0.000000,1.000000,28.000000,,,,0.000000,4.000000,4.000000,4.000000,4.000000,0.000000,66.666664,,,,,,,,,,,,,,,,,,,,,,,,,,,,,,,,
1698691832.239987,1698691832.241613,38.000000,0.000000,4752.307617,5072.820313,5280.512695,5389.743652,4217.436035,0.000000,1.000000,28.000000,,,,0.000000,4.000000,4.000000,4.000000,4.000000,0.000000,66.666664,,,,,,,,,,,,,,,,,,,,,,,,,,,,,,,,
1698691832.247868,1698691832.249593,39.000000,0.000000,4773.846191,5083.077148,5290.256348,5382.563965,4217.436035,0.000000,1.000000,28.000000,,,,0.000000,4.000000,4.000000,4.000000,4.000000,0.000000,66.666664,,,,,,,,,,,,,,,,,,,,,,,,,,,,,,,,
1698691832.255748,1698691832.257374,40.000000,0.000000,4805.641113,5099.487305,5328.205078,5396.922852,4217.436035,0.000000,1.000000,28.000000,,,,0.000000,4.000000,4.000000,4.000000,4.000000,0.000000,66.666664,,,,,,,,,,,,,,,,,,,,,,,,,,,,,,,,
1698691832.263628,1698691832.265355,41.000000,0.000000,4783.589844,5058.461426,5316.410156,5373.846191,4217.436035,0.000000,1.000000,28.000000,,,,0.000000,4.000000,4.000000,4.000000,4.000000,0.000000,66.666664,,,,,,,,,,,,,,,,,,,,,,,,,,,,,,,,
1698691832.271509,1698691832.273336,42.000000,0.000000,4752.820313,5019.487305,5281.538574,5337.436035,4217.948730,0.000000,1.000000,28.000000,,,,0.000000,4.000000,4.000000,4.000000,4.000000,0.000000,66.666664,,,,,,,,,,,,,,,,,,,,,,,,,,,,,,,,
1698691832.279389,1698691832.281316,43.000000,0.000000,4750.769043,5027.692383,5261.538574,5338.461426,4217.436035,0.000000,1.000000,28.000000,,,,0.000000,4.000000,4.000000,4.000000,4.000000,0.000000,66.666664,,,,,,,,,,,,,,,,,,,,,,,,,,,,,,,,
1698691832.287269,1698691832.289296,44.000000,0.000000,4737.948730,5025.641113,5227.179688,5342.563965,4217.948730,0.000000,1.000000,28.000000,,,,0.000000,4.000000,4.000000,4.000000,4.000000,0.000000,66.666664,,,,,,,,,,,,,,,,,,,,,,,,,,,,,,,,
1698691832.295149,1698691832.297277,45.000000,0.000000,4743.077148,5027.692383,5213.846191,5341.538574,4218.974121,0.000000,1.000000,28.000000,,,,0.000000,4.000000,4.000000,4.000000,4.000000,0.000000,66.666664,,,,,,,,540.702454,201.243851,43.796188,17.043060,9.375446,59.247269,15.480918,17.353611,10.625766,3.054254,62.063587,13.731502,16.317421,8.080992,2.989868,51.671108,19.212740,10.196097,8.527657,2.761064,0.013289,0.013865,0.052725,0.050486,0.030905
1698691832.303029,1698691832.305057,46.000000,0.000000,4733.846191,5027.692383,5221.538574,5319.487305,4218.974121,0.000000,1.000000,28.000000,,,,0.000000,4.000000,4.000000,4.000000,4.000000,0.000000,66.666664,,,,,,,,,,,,,,,,,,,,,,,,,,,,,,,,
1698691832.310910,1698691832.312837,47.000000,0.000000,4693.333496,5015.384766,5227.179688,5297.436035,4218.461426,0.000000,1.000000,28.000000,,,,0.000000,4.000000,4.000000,4.000000,4.000000,0.000000,66.666664,,,,,,,,,,,,,,,,,,,,,,,,,,,,,,,,
1698691832.318790,1698691832.320618,48.000000,0.000000,4702.563965,5011.282227,5229.230957,5316.410156,4218.974121,0.000000,1.000000,28.000000,,,,0.000000,4.000000,4.000000,4.000000,4.000000,0.000000,66.666664,,,,,,,,,,,,,,,,,,,,,,,,,,,,,,,,
1698691832.326670,1698691832.328398,49.000000,0.000000,4747.179688,5033.846191,5247.692383,5352.307617,4219.487305,0.000000,1.000000,28.000000,,,,0.000000,4.000000,4.000000,4.000000,4.000000,0.000000,66.666664,,,,,,,,,,,,,,,,,,,,,,,,,,,,,,,,
1698691832.334551,1698691832.336178,50.000000,0.000000,4750.769043,5048.205078,5260.000000,5342.563965,4218.974121,0.000000,1.000000,28.000000,,,,0.000000,4.000000,4.000000,4.000000,4.000000,0.000000,66.666664,,,,,,,,,,,,,,,,,,,,,,,,,,,,,,,,
1698691832.342431,1698691832.343958,51.000000,0.000000,4711.282227,5007.179688,5230.256348,5285.641113,4218.974121,0.000000,1.000000,28.000000,,,,0.000000,4.000000,4.000000,4.000000,4.000000,0.000000,66.666664,,,,,,,,,,,,,,,,,,,,,,,,,,,,,,,,
1698691832.350311,1698691832.351739,52.000000,0.000000,4722.563965,5001.025879,5225.641113,5303.077148,4219.487305,0.000000,1.000000,28.000000,,,,0.000000,4.000000,4.000000,4.000000,4.000000,0.000000,66.666664,,,,,,,,,,,,,,,,,,,,,,,,,,,,,,,,
1698691832.358191,1698691832.359719,53.000000,0.000000,4739.487305,5021.538574,5232.307617,5349.230957,4218.974121,0.000000,1.000000,28.000000,,,,0.000000,4.000000,4.000000,4.000000,4.000000,0.000000,66.666664,,,,,,,,,,,,,,,,,,,,,,,,,,,,,,,,
1698691832.366072,1698691832.367699,54.000000,0.000000,4696.922852,4996.922852,5219.487305,5328.717773,4218.974121,0.000000,1.000000,28.000000,,,,0.000000,4.000000,4.000000,4.000000,4.000000,0.000000,66.666664,,,,,,,,,,,,,,,,,,,,,,,,,,,,,,,,
1698691832.373952,1698691832.375680,55.000000,0.000000,4702.051270,4998.974121,5232.820313,5325.128418,4218.974121,0.000000,1.000000,28.000000,,,,0.000000,4.000000,4.000000,4.000000,4.000000,0.000000,66.666664,,,,,,,,,,,,,,,,,,,,,,,,,,,,,,,,
1698691832.381832,1698691832.383660,56.000000,0.000000,4728.205078,5033.846191,5240.512695,5334.871582,4218.974121,0.000000,1.000000,28.000000,,,,0.000000,4.000000,4.000000,4.000000,4.000000,0.000000,66.666664,,,,,,,,,,,,,,,,,,,,,,,,,,,,,,,,
1698691832.389712,1698691832.391641,57.000000,0.000000,4707.692383,5025.641113,5229.230957,5327.179688,4218.974121,0.000000,1.000000,28.000000,,,,0.000000,4.000000,4.000000,4.000000,4.000000,0.000000,66.666664,,,,,,,,,,,,,,,,,,,,,,,,,,,,,,,,
1698691832.397593,1698691832.399621,58.000000,0.000000,4671.794922,4988.717773,5217.436035,5318.974121,4218.974121,0.000000,1.000000,28.000000,,,,0.000000,4.000000,4.000000,4.000000,4.000000,0.000000,66.666664,,,,,,,,,,,,,,,,,,,,,,,,,,,,,,,,
1698691832.405473,1698691832.407402,59.000000,0.000000,4639.487305,4960.000000,5197.948730,5297.948730,4218.974121,0.000000,1.000000,28.000000,,,,0.000000,4.000000,4.000000,4.000000,4.000000,0.000000,66.666664,,,,,,,,,,,,,,,,,,,,,,,,,,,,,,,,
1698691832.413353,1698691832.415182,60.000000,0.000000,4632.307617,4957.948730,5197.948730,5282.563965,4218.974121,0.000000,1.000000,28.000000,,,,0.000000,4.000000,4.000000,4.000000,4.000000,0.000000,66.666664,,,,,,,,,,,,,,,,,,,,,,,,,,,,,,,,
1698691832.421233,1698691832.423162,61.000000,0.000000,4648.205078,4966.153809,5213.846191,5284.102539,4218.974121,0.000000,1.000000,28.000000,,,,0.000000,4.000000,4.000000,4.000000,4.000000,0.000000,66.666664,,,,,,,,450.174500,166.601669,43.007561,14.627494,8.498901,48.311783,14.598033,21.694859,9.320779,3.192254,52.066959,11.380752,18.861094,6.733730,3.008852,41.622021,16.041813,13.124915,7.611331,2.754711,0.008162,0.018180,0.073290,0.069204,0.041999
1698691832.429114,1698691832.430942,62.000000,0.000000,4678.461426,5003.077148,5227.179688,5293.846191,4218.974121,0.000000,1.000000,28.000000,,,,0.000000,4.000000,4.000000,4.000000,4.000000,0.000000,66.666664,,,,,,,,,,,,,,,,,,,,,,,,,,,,,,,,
1698691832.436994,1698691832.438923,63.000000,0.000000,4682.563965,5017.436035,5220.512695,5300.512695,4218.974121,0.000000,1.000000,28.000000,,,,0.000000,4.000000,4.000000,4.000000,4.000000,0.000000,66.666664,,,,,,,,,,,,,,,,,,,,,,,,,,,,,,,,
1698691832.444874,1698691832.446703,64.000000,0.000000,4647.179688,4978.461426,5194.871582,5296.922852,4218.974121,450.000000,1.000000,28.000000,,,,0.000000,4.000000,4.000000,4.000000,4.000000,0.000000,66.666664,,,,,,,,,,,,,,,,,,,,,,,,,,,,,,,,
1698691832.452754,1698691832.454683,65.000000,0.000000,4650.769043,4980.512695,5205.128418,5318.974121,4218.974121,450.000000,1.000000,28.000000,,,,0.000000,4.000000,4.000000,4.000000,4.000000,0.000000,66.666664,,,,,,,,,,,,,,,,,,,,,,,,,,,,,,,,
1698691832.460635,1698691832.462464,66.000000,0.000000,4676.922852,5001.025879,5223.077148,5335.897461,4219.487305,1023.000000,1.000000,28.000000,,,,0.000000,4.000000,4.000000,4.000000,4.000000,0.000000,66.666664,,,,,,,,,,,,,,,,,,,,,,,,,,,,,,,,
1698691832.468515,1698691832.470444,67.000000,0.000000,4690.256348,5003.077148,5219.487305,5325.641113,4219.487305,450.000000,1.000000,28.000000,,,,0.000000,4.000000,4.000000,4.000000,4.000000,0.000000,66.666664,,,,,,,,,,,,,,,,,,,,,,,,,,,,,,,,
1698691832.476395,1698691832.478224,68.000000,0.000000,4687.692383,5019.487305,5229.743652,5323.589844,4219.487305,1023.000000,1.000000,28.000000,,,,0.000000,4.000000,4.000000,4.000000,4.000000,0.000000,66.666664,,,,,,,,,,,,,,,,,,,,,,,,,,,,,,,,
1698691832.484275,1698691832.486205,69.000000,0.000000,4643.589844,5009.230957,5235.384766,5318.461426,4218.974121,450.000000,1.000000,28.000000,,,,0.000000,4.000000,4.000000,4.000000,4.000000,0.000000,66.666664,,,,,,,,,,,,,,,,,,,,,,,,,,,,,,,,
1698691832.492156,1698691832.493985,70.000000,0.000000,4630.256348,5007.179688,5241.538574,5325.641113,4218.461426,1023.000000,1.000000,28.000000,,,,0.000000,4.000000,4.000000,4.000000,4.000000,0.000000,66.666664,,,,,,,,,,,,,,,,,,,,,,,,,,,,,,,,
1698691832.500036,1698691832.501965,71.000000,0.000000,4632.307617,5009.230957,5234.871582,5323.077148,4220.000000,450.000000,1.000000,28.000000,,,,0.000000,4.000000,4.000000,4.000000,4.000000,0.000000,66.666664,,,,,,,,,,,,,,,,,,,,,,,,,,,,,,,,
1698691832.507916,1698691832.509746,72.000000,0.000000,4595.897461,4982.563965,5215.897461,5298.974121,4218.974121,450.000000,1.000000,28.000000,,,,0.000000,4.000000,4.000000,4.000000,4.000000,0.000000,66.666664,,,,,,,,,,,,,,,,,,,,,,,,,,,,,,,,
1698691832.515797,1698691832.517726,73.000000,0.000000,4569.743652,4960.000000,5198.461426,5282.051270,4218.461426,1023.000000,1.000000,28.000000,,,,0.000000,4.000000,4.000000,4.000000,4.000000,0.000000,66.666664,,,,,,,,,,,,,,,,,,,,,,,,,,,,,,,,
1698691832.523677,1698691832.525506,74.000000,0.000000,4550.769043,4941.538574,5169.743652,5265.128418,4226.153809,450.000000,1.000000,28.000000,,,,0.000000,4.000000,4.000000,4.000000,4.000000,0.000000,66.666664,,,,,,,,,,,,,,,,,,,,,,,,,,,,,,,,
1698691832.531557,1698691832.533487,75.000000,0.000000,4585.128418,4978.461426,5198.461426,5314.358887,4233.846191,0.000000,1.000000,28.000000,,,,0.000000,4.000000,4.000000,4.000000,4.000000,0.000000,66.666664,,,,,,,,,,,,,,,,,,,,,,,,,,,,,,,,
1698691832.539437,1698691832.541267,76.000000,0.000000,4661.025879,5048.205078,5265.128418,5399.487305,4227.692383,450.000000,1.000000,28.000000,,,,0.000000,4.000000,4.000000,4.000000,4.000000,0.000000,66.666664,,,,,,,,,,,,,,,,,,,,,,,,,,,,,,,,
1698691832.547317,1698691832.549247,77.000000,0.000000,4686.666504,5066.666504,5282.563965,5416.922852,4217.948730,450.000000,1.000000,28.000000,,,,0.000000,4.000000,4.000000,4.000000,4.000000,0.000000,66.666664,1.000000,8.333333,1.000000,0.000000,1.000000,1.000000,0.000000,315.318848,120.371811,39.793365,11.235779,7.005291,38.265251,13.365784,26.170710,7.566779,3.259873,41.138493,9.574999,21.617702,5.322556,2.941670,33.503395,12.684149,17.158981,6.458097,2.745479,0.005597,0.022475,0.091754,0.084439,0.052931
1698691832.555198,1698691832.557028,78.000000,0.000000,4658.974121,5042.051270,5258.461426,5389.743652,4218.461426,450.000000,1.000000,28.000000,,,,0.000000,4.000000,4.000000,4.000000,4.000000,0.000000,66.666664,,,,,,,,,,,,,,,,,,,,,,,,,,,,,,,,
1698691832.563078,1698691832.565008,79.000000,0.000000,4628.717773,5011.282227,5246.666504,5364.615234,4220.512695,0.000000,1.000000,28.000000,,,,0.000000,4.000000,4.000000,4.000000,4.000000,0.000000,66.666664,,,,,,,,,,,,,,,,,,,,,,,,,,,,,,,,
1698691832.570958,1698691832.572788,80.000000,0.000000,4629.743652,5021.538574,5276.922852,5375.897461,4219.487305,450.000000,1.000000,28.000000,,,,0.000000,4.000000,4.000000,4.000000,4.000000,0.000000,66.666664,,,,,,,,,,,,,,,,,,,,,,,,,,,,,,,,
1698691832.578838,1698691832.580769,81.000000,0.000000,4624.615234,5037.948730,5293.846191,5400.000000,4220.512695,450.000000,1.000000,28.000000,,,,0.000000,4.000000,4.000000,4.000000,4.000000,0.000000,66.666664,,,,,,,,,,,,,,,,,,,,,,,,,,,,,,,,
1698691832.586719,1698691832.588749,82.000000,0.000000,4607.179688,5029.743652,5279.487305,5401.025879,4218.974121,450.000000,1.000000,28.000000,,,,0.000000,4.000000,4.000000,4.000000,4.000000,0.000000,66.666664,,,,,,,,,,,,,,,,,,,,,,,,,,,,,,,,
1698691832.594599,1698691832.596530,83.000000,0.000000,4584.615234,5021.538574,5268.717773,5389.230957,4219.487305,0.000000,1.000000,28.000000,,,,0.000000,4.000000,4.000000,4.000000,4.000000,0.000000,66.666664,,,,,,,,,,,,,,,,,,,,,,,,,,,,,,,,
1698691832.602479,1698691832.604510,84.000000,0.000000,4521.025879,5007.179688,5241.538574,5364.102539,4227.179688,450.000000,1.000000,28.000000,,,,0.000000,4.000000,4.000000,4.000000,4.000000,0.000000,66.666664,,,,,,,,,,,,,,,,,,,,,,,,,,,,,,,,
1698691832.610360,1698691832.612290,85.000000,0.000000,4497.948730,4988.717773,5215.897461,5358.461426,4234.358887,450.000000,1.000000,28.000000,,,,0.000000,4.000000,4.000000,4.000000,4.000000,0.000000,66.666664,,,,,,,,,,,,,,,,,,,,,,,,,,,,,,,,
1698691832.618240,1698691832.620071,86.000000,0.000000,4517.436035,4943.589844,5186.666504,5348.717773,4229.743652,450.000000,1.000000,28.000000,,,,0.000000,4.000000,4.000000,4.000000,4.000000,0.000000,66.666664,,,,,,,,,,,,,,,,,,,,,,,,,,,,,,,,
1698691832.626120,1698691832.627851,87.000000,0.000000,4508.717773,4921.025879,5168.717773,5330.769043,4221.025879,0.000000,1.000000,28.000000,,,,0.000000,4.000000,4.000000,4.000000,4.000000,0.000000,66.666664,,,,,,,,,,,,,,,,,,,,,,,,,,,,,,,,
1698691832.634000,1698691832.635631,88.000000,0.000000,4507.692383,4974.358887,5215.384766,5360.512695,4218.461426,450.000000,1.000000,28.000000,,,,0.000000,4.000000,4.000000,4.000000,4.000000,0.000000,66.666664,,,,,,,,,,,,,,,,,,,,,,,,,,,,,,,,
1698691832.641881,1698691832.643411,89.000000,0.000000,4492.307617,4980.512695,5241.025879,5368.205078,4217.436035,450.000000,1.000000,28.000000,,,,0.000000,4.000000,4.000000,4.000000,4.000000,0.000000,66.666664,,,,,,,,,,,,,,,,,,,,,,,,,,,,,,,,
1698691832.649761,1698691832.651192,90.000000,0.000000,4423.077148,4921.025879,5196.922852,5320.512695,4222.051270,450.000000,1.000000,28.000000,,,,0.000000,4.000000,4.000000,4.000000,4.000000,0.000000,66.666664,,,,,,,,,,,,,,,,,,,,,,,,,,,,,,,,
1698691832.657641,1698691832.658972,91.000000,0.000000,4338.974121,4880.000000,5141.025879,5269.743652,4232.307617,0.000000,1.000000,28.000000,,,,0.000000,4.000000,4.000000,4.000000,4.000000,0.000000,66.666664,,,,,,,,,,,,,,,,,,,,,,,,,,,,,,,,
1698691832.665521,1698691832.666752,92.000000,0.000000,4289.230957,4851.282227,5115.897461,5240.512695,4229.743652,450.000000,1.000000,28.000000,,,,0.000000,4.000000,4.000000,4.000000,4.000000,0.000000,66.666664,,,,,,,,,,,,,,,,,,,,,,,,,,,,,,,,
1698691832.673402,1698691832.674732,93.000000,0.000000,4339.487305,4892.307617,5178.974121,5306.153809,4218.461426,450.000000,1.000000,28.000000,,,,0.000000,4.000000,4.000000,4.000000,4.000000,0.000000,66.666664,,,,,,,,188.521210,76.632347,36.044712,7.926670,5.397842,30.375406,11.896866,30.217594,5.889233,3.244874,32.030983,8.267830,24.017294,4.262255,2.817728,27.587250,9.985431,21.939896,5.389296,2.788683,0.004397,0.025426,0.100318,0.089367,0.058146
1698691832.681282,1698691832.682713,94.000000,0.000000,4440.512695,4998.974121,5284.102539,5428.717773,4214.358887,450.000000,1.000000,28.000000,,,,0.000000,4.000000,4.000000,4.000000,4.000000,0.000000,66.666664,,,,,,,,,,,,,,,,,,,,,,,,,,,,,,,,
1698691832.689162,1698691832.690693,95.000000,0.000000,4468.717773,5062.563965,5322.051270,5479.487305,4222.563965,0.000000,1.000000,28.000000,,,,0.000000,4.000000,4.000000,4.000000,4.000000,0.000000,66.666664,,,,,,,,,,,,,,,,,,,,,,,,,,,,,,,,
1698691832.697042,1698691832.698674,96.000000,0.000000,4416.922852,5031.794922,5281.025879,5435.897461,4230.769043,450.000000,1.000000,28.000000,,,,0.000000,4.000000,4.000000,4.000000,4.000000,0.000000,66.666664,,,,,,,,,,,,,,,,,,,,,,,,,,,,,,,,
1698691832.704923,1698691832.706654,97.000000,0.000000,4367.692383,4980.512695,5249.743652,5388.717773,4227.692383,450.000000,1.000000,28.000000,,,,0.000000,4.000000,4.000000,4.000000,4.000000,0.000000,66.666664,,,,,,,,,,,,,,,,,,,,,,,,,,,,,,,,
1698691832.712803,1698691832.714634,98.000000,0.000000,4367.179688,4986.666504,5280.000000,5412.307617,4214.871582,450.000000,1.000000,28.000000,,,,0.000000,4.000000,4.000000,4.000000,4.000000,0.000000,66.666664,,,,,,,,,,,,,,,,,,,,,,,,,,,,,,,,
1698691832.720683,1698691832.722415,99.000000,0.000000,4349.743652,4980.512695,5286.153809,5417.436035,4216.410156,0.000000,1.000000,28.000000,,,,0.000000,4.000000,4.000000,4.000000,4.000000,0.000000,66.666664,,,,,,,,,,,,,,,,,,,,,,,,,,,,,,,,
1698691832.728563,1698691832.730195,100.000000,0.000000,4311.282227,4957.948730,5264.102539,5373.333496,4230.256348,450.000000,1.000000,28.000000,,,,0.000000,4.000000,4.000000,4.000000,4.000000,0.000000,66.666664,,,,,,,,,,,,,,,,,,,,,,,,,,,,,,,,
1698691832.736444,1698691832.738175,101.000000,0.000000,4294.358887,4962.051270,5274.871582,5370.769043,4228.205078,450.000000,1.000000,28.000000,,,,0.000000,4.000000,4.000000,4.000000,4.000000,0.000000,66.666664,,,,,,,,,,,,,,,,,,,,,,,,,,,,,,,,
1698691832.744324,1698691832.746156,102.000000,0.000000,4282.051270,4964.102539,5296.922852,5397.948730,4215.897461,450.000000,1.000000,28.000000,,,,0.000000,4.000000,4.000000,4.000000,4.000000,0.000000,66.666664,,,,,,,,,,,,,,,,,,,,,,,,,,,,,,,,
1698691832.752204,1698691832.754136,103.000000,0.000000,4271.794922,4955.897461,5303.589844,5405.128418,4216.922852,0.000000,1.000000,28.000000,,,,0.000000,4.000000,4.000000,4.000000,4.000000,0.000000,66.666664,,,,,,,,,,,,,,,,,,,,,,,,,,,,,,,,
1698691832.760085,1698691832.761916,104.000000,0.000000,4253.846191,4939.487305,5280.512695,5387.692383,4228.717773,450.000000,1.000000,28.000000,,,,0.000000,4.000000,4.000000,4.000000,4.000000,0.000000,66.666664,,,,,,,,,,,,,,,,,,,,,,,,,,,,,,,,
1698691832.767965,1698691832.769897,105.000000,0.000000,4261.025879,4943.589844,5269.743652,5392.307617,4228.717773,450.000000,1.000000,28.000000,,,,0.000000,4.000000,4.000000,4.000000,4.000000,0.000000,66.666664,,,,,,,,,,,,,,,,,,,,,,,,,,,,,,,,
1698691832.775845,1698691832.777677,106.000000,0.000000,4296.922852,4964.102539,5283.077148,5416.410156,4217.948730,450.000000,1.000000,28.000000,,,,0.000000,4.000000,4.000000,4.000000,4.000000,0.000000,66.666664,,,,,,,,,,,,,,,,,,,,,,,,,,,,,,,,
1698691832.783725,1698691832.785657,107.000000,0.000000,4292.307617,4951.794922,5276.410156,5411.794922,4216.410156,0.000000,1.000000,28.000000,,,,0.000000,4.000000,4.000000,4.000000,4.000000,0.000000,66.666664,,,,,,,,,,,,,,,,,,,,,,,,,,,,,,,,
1698691832.791606,1698691832.793438,108.000000,0.000000,4218.974121,4912.820313,5231.794922,5368.205078,4218.974121,450.000000,1.000000,28.000000,,,,0.000000,4.000000,4.000000,4.000000,4.000000,0.000000,66.666664,,,,,,,,,,,,,,,,,,,,,,,,,,,,,,,,
1698691832.799486,1698691832.801418,109.000000,0.000000,4122.563965,4867.692383,5171.282227,5299.487305,4217.436035,450.000000,1.000000,28.000000,,,,0.000000,4.000000,4.000000,4.000000,4.000000,0.000000,66.666664,,,,,,,,89.872459,46.006062,33.069168,5.554081,4.112813,26.650047,10.718011,33.032917,4.746425,3.167941,26.287045,7.611685,25.363197,3.807920,2.665166,25.359320,8.766021,26.476585,4.644059,2.903620,0.004158,0.027325,0.096526,0.082734,0.055733
1698691832.807366,1698691832.809198,110.000000,0.000000,4118.974121,4877.948730,5182.051270,5300.512695,4215.897461,450.000000,1.000000,28.000000,,,,0.000000,4.000000,4.000000,4.000000,4.000000,0.000000,66.666664,,,,,,,,,,,,,,,,,,,,,,,,,,,,,,,,
1698691832.815246,1698691832.817179,111.000000,0.000000,4191.282227,4925.128418,5253.846191,5367.692383,4220.000000,0.000000,1.000000,28.000000,,,,0.000000,4.000000,4.000000,4.000000,4.000000,0.000000,66.666664,,,,,,,,,,,,,,,,,,,,,,,,,,,,,,,,
1698691832.823126,1698691832.824959,112.000000,0.000000,4180.000000,4908.717773,5269.230957,5365.641113,4218.461426,450.000000,1.000000,28.000000,,,,0.000000,4.000000,4.000000,4.000000,4.000000,0.000000,66.666664,,,,,,,,,,,,,,,,,,,,,,,,,,,,,,,,
1698691832.831007,1698691832.832939,113.000000,0.000000,4119.487305,4865.641113,5246.153809,5326.666504,4216.410156,450.000000,1.000000,28.000000,,,,0.000000,4.000000,4.000000,4.000000,4.000000,0.000000,66.666664,,,,,,,,,,,,,,,,,,,,,,,,,,,,,,,,
1698691832.838887,1698691832.840720,114.000000,0.000000,4116.410156,4863.589844,5245.641113,5330.256348,4227.692383,450.000000,1.000000,28.000000,,,,0.000000,4.000000,4.000000,4.000000,4.000000,0.000000,66.666664,,,,,,,,,,,,,,,,,,,,,,,,,,,,,,,,
1698691832.846767,1698691832.848700,115.000000,0.000000,4140.512695,4880.000000,5270.769043,5357.948730,4233.333496,0.000000,1.000000,28.000000,,,,0.000000,4.000000,4.000000,4.000000,4.000000,0.000000,66.666664,,,,,,,,,,,,,,,,,,,,,,,,,,,,,,,,
1698691832.854648,1698691832.856480,116.000000,0.000000,4136.922852,4896.410156,5288.205078,5375.897461,4221.538574,450.000000,1.000000,28.000000,,,,0.000000,4.000000,4.000000,4.000000,4.000000,0.000000,66.666664,,,,,,,,,,,,,,,,,,,,,,,,,,,,,,,,
1698691832.862528,1698691832.864461,117.000000,0.000000,4075.384521,4873.846191,5247.692383,5334.358887,4215.384766,450.000000,1.000000,28.000000,,,,0.000000,4.000000,4.000000,4.000000,4.000000,0.000000,66.666664,,,,,,,,,,,,,,,,,,,,,,,,,,,,,,,,
1698691832.870408,1698691832.872241,118.000000,0.000000,4041.025635,4847.179688,5225.128418,5297.948730,4220.512695,450.000000,1.000000,28.000000,,,,0.000000,4.000000,4.000000,4.000000,4.000000,0.000000,66.666664,,,,,,,,,,,,,,,,,,,,,,,,,,,,,,,,
1698691832.878288,1698691832.880221,119.000000,0.000000,4072.307617,4869.743652,5265.641113,5329.743652,4220.512695,0.000000,1.000000,28.000000,,,,0.000000,4.000000,4.000000,4.000000,4.000000,0.000000,66.666664,,,,,,,,,,,,,,,,,,,,,,,,,,,,,,,,
1698691832.886169,1698691832.888002,120.000000,0.000000,4070.256348,4900.512695,5280.512695,5349.230957,4217.948730,450.000000,1.000000,28.000000,,,,0.000000,4.000000,4.000000,4.000000,4.000000,0.000000,66.666664,,,,,,,,,,,,,,,,,,,,,,,,,,,,,,,,
1698691832.894049,1698691832.895982,121.000000,0.000000,4000.000000,4867.692383,5229.230957,5304.615234,4219.487305,450.000000,1.000000,28.000000,,,,0.000000,4.000000,4.000000,4.000000,4.000000,0.000000,66.666664,,,,,,,,,,,,,,,,,,,,,,,,,,,,,,,,
1698691832.901929,1698691832.903762,122.000000,0.000000,3927.179443,4791.794922,5176.410156,5249.230957,4220.000000,450.000000,1.000000,28.000000,,,,0.000000,4.000000,4.000000,4.000000,4.000000,0.000000,66.666664,,,,,,,,,,,,,,,,,,,,,,,,,,,,,,,,
1698691832.909809,1698691832.911543,123.000000,0.000000,3947.179443,4810.256348,5211.282227,5281.025879,4220.000000,0.000000,1.000000,28.000000,,,,0.000000,4.000000,4.000000,4.000000,4.000000,0.000000,66.666664,,,,,,,,,,,,,,,,,,,,,,,,,,,,,,,,
1698691832.917690,1698691832.919323,124.000000,0.000000,3985.641113,4845.128418,5252.820313,5329.230957,4218.974121,450.000000,1.000000,28.000000,,,,0.000000,4.000000,4.000000,4.000000,4.000000,0.000000,66.666664,,,,,,,,,,,,,,,,,,,,,,,,,,,,,,,,
1698691832.925570,1698691832.927104,125.000000,0.000000,3957.948730,4802.051270,5226.666504,5289.743652,4217.948730,450.000000,1.000000,28.000000,,,,0.000000,4.000000,4.000000,4.000000,4.000000,0.000000,66.666664,,,,,,,,36.351303,31.113129,31.171364,4.605743,3.360298,24.799456,10.531964,33.887390,4.475538,3.071754,23.756851,7.962036,25.069515,4.083987,2.513045,24.742853,9.305101,29.670500,4.437270,3.071861,0.005007,0.030257,0.086999,0.071494,0.048662
1698691832.933450,1698691832.934884,126.000000,0.000000,3964.615479,4814.358887,5228.717773,5275.384766,4218.974121,450.000000,1.000000,28.000000,,,,0.000000,4.000000,4.000000,4.000000,4.000000,0.000000,66.666664,,,,,,,,,,,,,,,,,,,,,,,,,,,,,,,,
1698691832.941330,1698691832.942664,127.000000,0.000000,3979.487061,4847.179688,5243.589844,5292.307617,4219.487305,230.000000,1.000000,28.000000,,,,0.000000,4.000000,4.000000,4.000000,4.000000,0.000000,66.666664,,,,,,,,,,,,,,,,,,,,,,,,,,,,,,,,
1698691832.949211,1698691832.950445,0.000000,0.000000,3929.743652,4802.051270,5213.846191,5253.333496,4218.974121,450.000000,1.000000,28.000000,,,,0.000000,4.000000,4.000000,4.000000,4.000000,0.000000,66.666664,,,,,,,,,,,,,,,,,,,,,,,,,,,,,,,,
1698691832.957091,1698691832.958225,1.000000,0.000000,3876.410156,4761.025879,5185.128418,5203.589844,4218.974121,450.000000,1.000000,28.000000,,,,0.000000,4.000000,4.000000,4.000000,4.000000,0.000000,66.666664,,,,,,,,,,,,,,,,,,,,,,,,,,,,,,,,
1698691832.964971,1698691832.966005,2.000000,0.000000,3861.025635,4773.333496,5189.230957,5196.410156,4219.487305,1023.000000,1.000000,28.000000,,,,0.000000,4.000000,4.000000,4.000000,4.000000,0.000000,66.666664,,,,,,,,,,,,,,,,,,,,,,,,,,,,,,,,
1698691832.972851,1698691832.973785,3.000000,0.000000,3854.871826,4773.333496,5193.333496,5200.000000,4218.974121,450.000000,1.000000,28.000000,,,,0.000000,4.000000,4.000000,4.000000,4.000000,0.000000,66.666664,,,,,,,,,,,,,,,,,,,,,,,,,,,,,,,,
1698691832.980732,1698691832.981565,4.000000,0.000000,3826.666748,4726.153809,5164.615234,5169.230957,4218.974121,1023.000000,1.000000,28.000000,,,,0.000000,4.000000,4.000000,4.000000,4.000000,0.000000,66.666664,,,,,,,,,,,,,,,,,,,,,,,,,,,,,,,,
1698691832.988612,1698691832.989546,5.000000,0.000000,3826.153809,4724.102539,5161.538574,5155.897461,4218.974121,450.000000,1.000000,28.000000,,,,0.000000,4.000000,4.000000,4.000000,4.000000,0.000000,66.666664,,,,,,,,,,,,,,,,,,,,,,,,,,,,,,,,
1698691832.996492,1698691832.997526,6.000000,0.000000,3852.820557,4756.922852,5179.487305,5165.128418,4218.974121,1023.000000,1.000000,28.000000,,,,0.000000,4.000000,4.000000,4.000000,4.000000,0.000000,66.666664,,,,,,,,,,,,,,,,,,,,,,,,,,,,,,,,
1698691833.004372,1698691833.005507,7.000000,0.000000,3829.230713,4720.000000,5140.000000,5128.717773,4218.974121,450.000000,1.000000,28.000000,,,,0.000000,4.000000,4.000000,4.000000,4.000000,0.000000,66.666664,,,,,,,,,,,,,,,,,,,,,,,,,,,,,,,,
1698691833.012253,1698691833.013487,8.000000,0.000000,3798.974365,4674.871582,5099.487305,5092.820313,4218.974121,450.000000,1.000000,28.000000,,,,0.000000,4.000000,4.000000,4.000000,4.000000,0.000000,66.666664,,,,,,,,,,,,,,,,,,,,,,,,,,,,,,,,
1698691833.020133,1698691833.021267,9.000000,0.000000,3768.205078,4664.615234,5075.897461,5063.077148,4218.974121,1023.000000,1.000000,28.000000,,,,0.000000,4.000000,4.000000,4.000000,4.000000,0.000000,66.666664,,,,,,,,,,,,,,,,,,,,,,,,,,,,,,,,
1698691833.028013,1698691833.029048,10.000000,0.000000,3731.794922,4650.256348,5044.615234,5031.794922,4218.974121,450.000000,1.000000,28.000000,,,,0.000000,4.000000,4.000000,4.000000,4.000000,0.000000,66.666664,,,,,,,,,,,,,,,,,,,,,,,,,,,,,,,,
1698691833.035894,1698691833.037033,11.000000,0.000000,3719.487061,4633.846191,5026.666504,5022.563965,4219.487305,0.000000,1.000000,28.000000,,,,0.000000,4.000000,4.000000,4.000000,4.000000,0.000000,66.666664,,,,,,,,,,,,,,,,,,,,,,,,,,,,,,,,
1698691833.043774,1698691833.045018,12.000000,0.000000,3689.743652,4607.179688,5002.051270,4989.743652,4218.974121,450.000000,1.000000,28.000000,,,,0.000000,4.000000,4.000000,4.000000,4.000000,0.000000,66.666664,,,,,,,,,,,,,,,,,,,,,,,,,,,,,,,,
1698691833.051654,1698691833.053002,13.000000,0.000000,3673.333252,4603.077148,4985.128418,4957.948730,4218.974121,450.000000,1.000000,28.000000,,,,0.000000,4.000000,4.000000,4.000000,4.000000,0.000000,66.666664,1.000000,16.666666,1.000000,1.000000,3.000000,3.000000,0.000000,17.668270,27.365532,30.227177,5.150703,3.107310,24.962727,11.560055,32.595379,5.249988,2.994895,24.460741,9.435848,23.130487,5.120749,2.404399,26.119650,11.146861,30.990377,4.945930,3.269795,0.007334,0.037074,0.083003,0.066622,0.044817
1698691833.059534,1698691833.060987,14.000000,0.000000,3686.666748,4607.179688,4975.897461,4947.179688,4219.487305,450.000000,1.000000,28.000000,,,,0.000000,4.000000,4.000000,4.000000,4.000000,0.000000,66.666664,,,,,,,,,,,,,,,,,,,,,,,,,,,,,,,,
1698691833.067415,1698691833.068971,15.000000,0.000000,3693.846191,4592.820313,4970.256348,4942.051270,4218.974121,0.000000,1.000000,28.000000,,,,0.000000,4.000000,4.000000,4.000000,4.000000,0.000000,66.666664,,,,,,,,,,,,,,,,,,,,,,,,,,,,,,,,
1698691833.075295,1698691833.076955,16.000000,0.000000,3660.512939,4549.743652,4952.820313,4922.051270,4217.948730,0.000000,1.000000,28.000000,,,,0.000000,4.000000,4.000000,4.000000,4.000000,0.000000,66.666664,,,,,,,,,,,,,,,,,,,,,,,,,,,,,,,,
1698691833.083175,1698691833.084939,17.000000,0.000000,3602.564209,4504.615234,4910.769043,4868.205078,4218.461426,0.000000,1.000000,28.000000,,,,0.000000,4.000000,4.000000,4.000000,4.000000,0.000000,66.666664,,,,,,,,,,,,,,,,,,,,,,,,,,,,,,,,
1698691833.091055,1698691833.092922,18.000000,0.000000,3633.846191,4543.589844,4932.307617,4877.436035,4218.461426,0.000000,1.000000,28.000000,,,,0.000000,4.000000,4.000000,4.000000,4.000000,0.000000,66.666664,,,,,,,,,,,,,,,,,,,,,,,,,,,,,,,,
1698691833.098935,1698691833.100906,19.000000,0.000000,3712.307617,4609.230957,4997.436035,4940.512695,4217.436035,0.000000,1.000000,28.000000,,,,0.000000,4.000000,4.000000,4.000000,4.000000,0.000000,66.666664,,,,,,,,,,,,,,,,,,,,,,,,,,,,,,,,
1698691833.106816,1698691833.108889,20.000000,0.000000,3717.435791,4609.230957,5007.692383,4945.128418,4217.436035,0.000000,1.000000,28.000000,,,,0.000000,4.000000,4.000000,4.000000,4.000000,0.000000,66.666664,,,,,,,,,,,,,,,,,,,,,,,,,,,,,,,,
1698691833.114696,1698691833.116872,21.000000,0.000000,3703.589844,4607.179688,4996.922852,4922.563965,4217.948730,0.000000,1.000000,28.000000,,,,0.000000,4.000000,4.000000,4.000000,4.000000,0.000000,66.666664,,,,,,,,,,,,,,,,,,,,,,,,,,,,,,,,
1698691833.122576,1698691833.124855,22.000000,0.000000,3735.384521,4642.051270,5024.615234,4938.461426,4217.436035,0.000000,1.000000,28.000000,,,,0.000000,4.000000,4.000000,4.000000,4.000000,0.000000,66.666664,,,,,,,,,,,,,,,,,,,,,,,,,,,,,,,,
1698691833.130457,1698691833.132837,23.000000,0.000000,3768.205078,4668.717773,5052.820313,4964.102539,4217.436035,0.000000,1.000000,28.000000,,,,0.000000,4.000000,4.000000,4.000000,4.000000,0.000000,66.666664,,,,,,,,,,,,,,,,,,,,,,,,,,,,,,,,
1698691833.138337,1698691833.140820,24.000000,0.000000,3765.641113,4656.410156,5030.769043,4948.205078,4217.436035,0.000000,1.000000,28.000000,,,,0.000000,4.000000,4.000000,4.000000,4.000000,0.000000,66.666664,,,,,,,,,,,,,,,,,,,,,,,,,,,,,,,,
1698691833.146217,1698691833.148802,25.000000,0.000000,3781.025635,4664.615234,5021.025879,4934.871582,4217.436035,0.000000,1.000000,28.000000,,,,0.000000,4.000000,4.000000,4.000000,4.000000,0.000000,66.666664,,,,,,,,,,,,,,,,,,,,,,,,,,,,,,,,
1698691833.154097,1698691833.156784,26.000000,0.000000,3813.333252,4695.384766,5037.948730,4943.589844,4217.436035,0.000000,1.000000,28.000000,,,,0.000000,4.000000,4.000000,4.000000,4.000000,0.000000,66.666664,,,,,,,,,,,,,,,,,,,,,,,,,,,,,,,,
1698691833.161978,1698691833.164766,27.000000,0.000000,3790.769287,4656.410156,5004.102539,4912.820313,4217.436035,0.000000,1.000000,28.000000,,,,0.000000,4.000000,4.000000,4.000000,4.000000,0.000000,66.666664,,,,,,,,,,,,,,,,,,,,,,,,,,,,,,,,
1698691833.169858,1698691833.172747,28.000000,0.000000,3766.153809,4609.230957,4966.153809,4880.512695,4217.436035,0.000000,1.000000,28.000000,,,,0.000000,4.000000,4.000000,4.000000,4.000000,0.000000,66.666664,,,,,,,,,,,,,,,,,,,,,,,,,,,,,,,,
1698691833.177738,1698691833.180729,29.000000,0.000000,3795.897461,4631.794922,4977.436035,4896.922852,4217.436035,0.000000,1.000000,28.000000,,,,0.000000,4.000000,4.000000,4.000000,4.000000,0.000000,66.666664,,,,,,,,15.996835,27.796030,30.068689,6.926405,3.210095,26.400734,13.441751,29.469532,6.964354,2.984640,28.242016,11.692929,20.074215,6.782516,2.419970,28.426414,13.484530,30.579391,6.167227,3.514863,0.010282,0.049913,0.093770,0.076556,0.052929
1698691833.185619,1698691833.188710,30.000000,0.000000,3834.871826,4660.512695,4986.153809,4914.871582,4217.436035,0.000000,1.000000,28.000000,,,,0.000000,4.000000,4.000000,4.000000,4.000000,0.000000,66.666664,,,,,,,,,,,,,,,,,,,,,,,,,,,,,,,,
1698691833.193499,1698691833.196691,31.000000,0.000000,3891.281982,4681.025879,4996.410156,4932.307617,4217.436035,0.000000,1.000000,28.000000,,,,0.000000,4.000000,4.000000,4.000000,4.000000,0.000000,66.666664,,,,,,,,,,,,,,,,,,,,,,,,,,,,,,,,
1698691833.201379,1698691833.204672,32.000000,0.000000,3952.820557,4728.205078,5030.769043,4961.025879,4217.436035,0.000000,1.000000,28.000000,,,,0.000000,4.000000,4.000000,4.000000,4.000000,0.000000,66.666664,,,,,,,,,,,,,,,,,,,,,,,,,,,,,,,,
1698691833.209259,1698691833.212653,33.000000,0.000000,3981.538574,4797.948730,5073.333496,4989.230957,4217.436035,0.000000,1.000000,28.000000,,,,0.000000,4.000000,4.000000,4.000000,4.000000,0.000000,66.666664,,,,,,,,,,,,,,,,,,,,,,,,,,,,,,,,
1698691833.217139,1698691833.220633,34.000000,0.000000,3967.179443,4795.897461,5064.102539,4979.487305,4217.436035,0.000000,1.000000,28.000000,,,,0.000000,4.000000,4.000000,4.000000,4.000000,0.000000,66.666664,,,,,,,,,,,,,,,,,,,,,,,,,,,,,,,,
1698691833.225020,1698691833.228414,35.000000,0.000000,3956.410156,4742.563965,5021.025879,4937.948730,4217.948730,0.000000,1.000000,28.000000,,,,0.000000,4.000000,4.000000,4.000000,4.000000,0.000000,66.666664,,,,,,,,,,,,,,,,,,,,,,,,,,,,,,,,
1698691833.232900,1698691833.236194,36.000000,0.000000,3994.871826,4746.666504,5017.436035,4928.205078,4218.974121,0.000000,1.000000,28.000000,,,,0.000000,4.000000,4.000000,4.000000,4.000000,0.000000,66.666664,,,,,,,,,,,,,,,,,,,,,,,,,,,,,,,,
1698691833.240780,1698691833.244175,37.000000,0.000000,3984.102539,4726.153809,4986.666504,4884.102539,4219.487305,0.000000,1.000000,28.000000,,,,0.000000,4.000000,4.000000,4.000000,4.000000,0.000000,66.666664,,,,,,,,,,,,,,,,,,,,,,,,,,,,,,,,
1698691833.248660,1698691833.252155,38.000000,0.000000,3955.384521,4695.384766,4950.256348,4827.692383,4218.974121,0.000000,1.000000,28.000000,,,,0.000000,4.000000,4.000000,4.000000,4.000000,0.000000,66.666664,,,,,,,,,,,,,,,,,,,,,,,,,,,,,,,,
1698691833.256541,1698691833.259935,39.000000,0.000000,4012.307617,4746.666504,4986.666504,4858.974121,4218.461426,0.000000,1.000000,28.000000,,,,0.000000,4.000000,4.000000,4.000000,4.000000,0.000000,66.666664,,,,,,,,,,,,,,,,,,,,,,,,,,,,,,,,
1698691833.264421,1698691833.267715,40.000000,0.000000,4062.051270,4769.230957,5012.820313,4887.692383,4217.948730,0.000000,1.000000,28.000000,,,,0.000000,4.000000,4.000000,4.000000,4.000000,0.000000,66.666664,,,,,,,,,,,,,,,,,,,,,,,,,,,,,,,,
1698691833.272301,1698691833.275496,41.000000,0.000000,4053.333252,4730.256348,4996.410156,4867.692383,4218.461426,0.000000,1.000000,28.000000,,,,0.000000,4.000000,4.000000,4.000000,4.000000,0.000000,66.666664,,,,,,,,,,,,,,,,,,,,,,,,,,,,,,,,
1698691833.280182,1698691833.283476,42.000000,0.000000,4054.871826,4726.153809,4992.307617,4863.077148,4218.461426,0.000000,1.000000,28.000000,,,,0.000000,4.000000,4.000000,4.000000,4.000000,0.000000,66.666664,,,,,,,,,,,,,,,,,,,,,,,,,,,,,,,,
1698691833.288062,1698691833.291457,43.000000,0.000000,4105.128418,4771.282227,5014.871582,4887.692383,4218.461426,0.000000,1.000000,28.000000,,,,0.000000,4.000000,4.000000,4.000000,4.000000,0.000000,66.666664,,,,,,,,,,,,,,,,,,,,,,,,,,,,,,,,
1698691833.295942,1698691833.299437,44.000000,0.000000,4127.692383,4763.077148,4998.974121,4872.820313,4218.461426,0.000000,1.000000,28.000000,,,,0.000000,4.000000,4.000000,4.000000,4.000000,0.000000,66.666664,,,,,,,,,,,,,,,,,,,,,,,,,,,,,,,,
1698691833.303822,1698691833.307417,45.000000,0.000000,4086.666748,4695.384766,4941.025879,4809.743652,4218.461426,0.000000,1.000000,28.000000,,,,0.000000,4.000000,4.000000,4.000000,4.000000,0.000000,66.666664,,,,,,,,18.732775,28.004471,30.748095,9.469824,3.556895,29.265203,15.391901,25.252935,9.211799,3.092528,34.822243,14.070027,16.667818,8.739093,2.639107,31.942312,15.401640,29.085030,7.856775,3.847845,0.014444,0.068142,0.119935,0.101506,0.076620
1698691833.311703,1698691833.315198,46.000000,0.000000,4096.922852,4693.333496,4920.000000,4785.128418,4218.461426,0.000000,1.000000,28.000000,,,,0.000000,4.000000,4.000000,4.000000,4.000000,0.000000,66.666664,,,,,,,,,,,,,,,,,,,,,,,,,,,,,,,,
1698691833.319583,1698691833.323179,47.000000,0.000000,4157.948730,4728.205078,4913.846191,4779.487305,4218.461426,0.000000,1.000000,28.000000,,,,0.000000,4.000000,4.000000,4.000000,4.000000,0.000000,66.666664,,,,,,,,,,,,,,,,,,,,,,,,,,,,,,,,
1698691833.327463,1698691833.330959,48.000000,0.000000,4208.205078,4744.615234,4919.487305,4777.948730,4218.461426,0.000000,1.000000,28.000000,,,,0.000000,4.000000,4.000000,4.000000,4.000000,0.000000,66.666664,,,,,,,,,,,,,,,,,,,,,,,,,,,,,,,,
1698691833.335343,1698691833.338739,49.000000,0.000000,4231.282227,4736.410156,4924.102539,4777.436035,4218.461426,0.000000,1.000000,28.000000,,,,0.000000,4.000000,4.000000,4.000000,4.000000,0.000000,66.666664,,,,,,,,,,,,,,,,,,,,,,,,,,,,,,,,
1698691833.343223,1698691833.346520,50.000000,0.000000,4221.025879,4701.538574,4878.461426,4734.358887,4218.461426,0.000000,1.000000,28.000000,,,,0.000000,4.000000,4.000000,4.000000,4.000000,0.000000,66.666664,,,,,,,,,,,,,,,,,,,,,,,,,,,,,,,,
1698691833.351104,1698691833.354500,51.000000,0.000000,4258.974121,4720.000000,4867.179688,4733.333496,4218.461426,0.000000,1.000000,28.000000,,,,0.000000,4.000000,4.000000,4.000000,4.000000,0.000000,66.666664,,,,,,,,,,,,,,,,,,,,,,,,,,,,,,,,
1698691833.358984,1698691833.362280,52.000000,0.000000,4323.077148,4767.179688,4902.563965,4777.436035,4218.461426,0.000000,1.000000,28.000000,,,,0.000000,4.000000,4.000000,4.000000,4.000000,0.000000,66.666664,,,,,,,,,,,,,,,,,,,,,,,,,,,,,,,,
1698691833.366864,1698691833.370261,53.000000,0.000000,4332.307617,4765.128418,4885.641113,4763.589844,4218.461426,0.000000,1.000000,28.000000,,,,0.000000,4.000000,4.000000,4.000000,4.000000,0.000000,66.666664,,,,,,,,,,,,,,,,,,,,,,,,,,,,,,,,
1698691833.374745,1698691833.378041,54.000000,0.000000,4326.153809,4750.769043,4838.974121,4715.897461,4218.461426,0.000000,1.000000,28.000000,,,,0.000000,4.000000,4.000000,4.000000,4.000000,0.000000,66.666664,,,,,,,,,,,,,,,,,,,,,,,,,,,,,,,,
1698691833.382625,1698691833.386021,55.000000,0.000000,4345.128418,4754.871582,4831.794922,4699.487305,4218.461426,0.000000,1.000000,28.000000,,,,0.000000,4.000000,4.000000,4.000000,4.000000,0.000000,66.666664,,,,,,,,,,,,,,,,,,,,,,,,,,,,,,,,
1698691833.390505,1698691833.393802,56.000000,0.000000,4388.205078,4775.384766,4853.333496,4710.256348,4218.461426,0.000000,1.000000,28.000000,,,,0.000000,4.000000,4.000000,4.000000,4.000000,0.000000,66.666664,,,,,,,,,,,,,,,,,,,,,,,,,,,,,,,,
1698691833.398385,1698691833.401782,57.000000,0.000000,4395.897461,4756.922852,4837.948730,4680.512695,4218.461426,0.000000,1.000000,28.000000,,,,0.000000,4.000000,4.000000,4.000000,4.000000,0.000000,66.666664,,,,,,,,,,,,,,,,,,,,,,,,,,,,,,,,
1698691833.406266,1698691833.409562,58.000000,0.000000,4365.128418,4709.743652,4798.974121,4622.563965,4218.461426,0.000000,1.000000,28.000000,,,,0.000000,4.000000,4.000000,4.000000,4.000000,0.000000,66.666664,,,,,,,,,,,,,,,,,,,,,,,,,,,,,,,,
1698691833.414146,1698691833.417543,59.000000,0.000000,4384.615234,4715.897461,4783.589844,4610.769043,4218.461426,0.000000,1.000000,28.000000,,,,0.000000,4.000000,4.000000,4.000000,4.000000,0.000000,66.666664,,,,,,,,,,,,,,,,,,,,,,,,,,,,,,,,
1698691833.422026,1698691833.425523,60.000000,0.000000,4446.153809,4748.717773,4786.153809,4624.615234,4218.974121,0.000000,1.000000,28.000000,,,,0.000000,4.000000,4.000000,4.000000,4.000000,0.000000,66.666664,,,,,,,,,,,,,,,,,,,,,,,,,,,,,,,,
1698691833.429906,1698691833.433504,61.000000,0.000000,4505.128418,4765.128418,4797.436035,4638.974121,4219.487305,0.000000,1.000000,28.000000,,,,0.000000,4.000000,4.000000,4.000000,4.000000,0.000000,66.666664,,,,,,,,22.667627,26.686199,32.190033,12.174302,4.084749,33.350975,16.809673,21.028067,11.376469,3.341214,43.417904,15.955220,13.731174,10.512328,3.068269,36.278427,16.480656,27.327789,9.538210,4.275301,0.018583,0.087749,0.152507,0.132345,0.111032
1698691833.437787,1698691833.441284,62.000000,0.000000,4535.384766,4771.282227,4786.666504,4643.589844,4219.487305,0.000000,1.000000,28.000000,,,,0.000000,4.000000,4.000000,4.000000,4.000000,0.000000,66.666664,,,,,,,,,,,,,,,,,,,,,,,,,,,,,,,,
1698691833.445667,1698691833.449264,63.000000,0.000000,4522.051270,4765.128418,4756.410156,4616.922852,4218.974121,0.000000,1.000000,28.000000,,,,0.000000,4.000000,4.000000,4.000000,4.000000,0.000000,66.666664,,,,,,,,,,,,,,,,,,,,,,,,,,,,,,,,
1698691833.453547,1698691833.457045,64.000000,0.000000,4524.615234,4769.230957,4749.230957,4591.794922,4219.487305,450.000000,1.000000,28.000000,,,,0.000000,4.000000,4.000000,4.000000,4.000000,0.000000,66.666664,,,,,,,,,,,,,,,,,,,,,,,,,,,,,,,,
1698691833.461427,1698691833.465025,65.000000,0.000000,4568.717773,4773.333496,4745.641113,4584.102539,4219.487305,450.000000,1.000000,28.000000,,,,0.000000,4.000000,4.000000,4.000000,4.000000,0.000000,66.666664,,,,,,,,,,,,,,,,,,,,,,,,,,,,,,,,
1698691833.469308,1698691833.472805,66.000000,0.000000,4600.000000,4763.077148,4718.461426,4572.820313,4218.974121,1023.000000,1.000000,28.000000,,,,0.000000,4.000000,4.000000,4.000000,4.000000,0.000000,66.666664,,,,,,,,,,,,,,,,,,,,,,,,,,,,,,,,
1698691833.477188,1698691833.480786,67.000000,0.000000,4586.153809,4734.358887,4668.205078,4535.384766,4219.487305,450.000000,1.000000,28.000000,,,,0.000000,4.000000,4.000000,4.000000,4.000000,0.000000,66.666664,,,,,,,,,,,,,,,,,,,,,,,,,,,,,,,,
1698691833.485068,1698691833.488566,68.000000,0.000000,4588.717773,4728.205078,4649.743652,4523.077148,4218.974121,1023.000000,1.000000,28.000000,,,,0.000000,4.000000,4.000000,4.000000,4.000000,0.000000,66.666664,,,,,,,,,,,,,,,,,,,,,,,,,,,,,,,,
1698691833.492948,1698691833.496546,69.000000,0.000000,4651.794922,4761.025879,4686.666504,4585.128418,4219.487305,450.000000,1.000000,28.000000,,,,0.000000,4.000000,4.000000,4.000000,4.000000,0.000000,66.666664,,,,,,,,,,,,,,,,,,,,,,,,,,,,,,,,
1698691833.500829,1698691833.504327,70.000000,0.000000,4686.153809,4750.769043,4674.358887,4607.179688,4219.487305,317.000000,1.000000,28.000000,,,,0.000000,4.000000,4.000000,2.000000,4.000000,0.000000,50.000000,,,,,,,,,,,,,,,,,,,,,,,,,,,,,,,,
1698691833.508709,1698691833.512107,71.000000,0.000000,4685.641113,4715.897461,4615.897461,4567.179688,4218.974121,450.000000,1.000000,28.000000,,,,0.000000,4.000000,4.000000,2.000000,4.000000,0.000000,50.000000,,,,,,,,,,,,,,,,,,,,,,,,,,,,,,,,
1698691833.516589,1698691833.519887,72.000000,0.000000,4698.461426,4720.000000,4597.948730,4557.948730,4219.487305,450.000000,1.000000,28.000000,,,,0.000000,4.000000,4.000000,2.000000,4.000000,0.000000,50.000000,,,,,,,,,,,,,,,,,,,,,,,,,,,,,,,,
1698691833.524470,1698691833.527668,73.000000,0.000000,4681.538574,4707.692383,4589.230957,4556.410156,4218.974121,1023.000000,1.000000,28.000000,,,,0.000000,4.000000,4.000000,2.000000,4.000000,0.000000,50.000000,,,,,,,,,,,,,,,,,,,,,,,,,,,,,,,,
1698691833.532350,1698691833.535448,74.000000,0.000000,4655.897461,4683.077148,4560.000000,4546.666504,4218.974121,450.000000,1.000000,28.000000,,,,0.000000,4.000000,4.000000,2.000000,4.000000,0.000000,50.000000,,,,,,,,,,,,,,,,,,,,,,,,,,,,,,,,
1698691833.540230,1698691833.543229,75.000000,0.000000,4657.436035,4672.820313,4520.512695,4549.743652,4219.487305,0.000000,1.000000,28.000000,,,,0.000000,4.000000,4.000000,2.000000,4.000000,0.000000,50.000000,,,,,,,,,,,,,,,,,,,,,,,,,,,,,,,,
1698691833.548110,1698691833.551009,76.000000,0.000000,4683.077148,4672.820313,4497.436035,4566.666504,4218.974121,450.000000,1.000000,28.000000,,,,0.000000,4.000000,4.000000,2.000000,4.000000,0.000000,50.000000,,,,,,,,,,,,,,,,,,,,,,,,,,,,,,,,
1698691833.555991,1698691833.558789,77.000000,0.000000,4695.897461,4664.615234,4494.358887,4570.256348,4218.974121,450.000000,1.000000,28.000000,,,,0.000000,4.000000,4.000000,2.000000,4.000000,0.000000,50.000000,1.000000,16.666666,1.000000,3.000000,1.000000,1.000000,0.000000,26.737745,24.193155,33.993294,14.344227,4.718201,38.198009,17.481991,17.936386,12.864314,3.727387,52.752075,16.921753,11.900136,11.577884,3.618221,40.729389,16.814278,25.984232,10.648067,4.739878,0.022804,0.102550,0.176821,0.155213,0.144323
1698691833.563871,1698691833.566570,78.000000,0.000000,4663.077148,4621.538574,4476.410156,4534.358887,4220.512695,450.000000,1.000000,28.000000,,,,0.000000,4.000000,4.000000,2.000000,4.000000,0.000000,50.000000,,,,,,,,,,,,,,,,,,,,,,,,,,,,,,,,
1698691833.571751,1698691833.574350,79.000000,0.000000,4645.641113,4584.615234,4444.615234,4510.256348,4220.000000,0.000000,1.000000,28.000000,,,,0.000000,4.000000,4.000000,2.000000,4.000000,0.000000,50.000000,,,,,,,,,,,,,,,,,,,,,,,,,,,,,,,,
1698691833.579631,1698691833.582130,80.000000,0.000000,4647.179688,4562.051270,4390.256348,4498.974121,4218.461426,450.000000,1.000000,28.000000,,,,0.000000,4.000000,4.000000,2.000000,4.000000,0.000000,50.000000,,,,,,,,,,,,,,,,,,,,,,,,,,,,,,,,
1698691833.587512,1698691833.589910,81.000000,0.000000,4657.436035,4572.307617,4354.358887,4493.333496,4218.461426,450.000000,1.000000,28.000000,,,,0.000000,4.000000,4.000000,2.000000,4.000000,0.000000,50.000000,,,,,,,,,,,,,,,,,,,,,,,,,,,,,,,,
1698691833.595392,1698691833.597690,82.000000,0.000000,4685.641113,4596.922852,4353.333496,4508.205078,4217.948730,450.000000,1.000000,28.000000,,,,0.000000,4.000000,4.000000,2.000000,4.000000,0.000000,50.000000,,,,,,,,,,,,,,,,,,,,,,,,,,,,,,,,
1698691833.603272,1698691833.605671,83.000000,0.000000,4692.307617,4580.512695,4324.615234,4497.436035,4220.000000,0.000000,1.000000,28.000000,,,,0.000000,4.000000,4.000000,2.000000,4.000000,0.000000,50.000000,,,,,,,,,,,,,,,,,,,,,,,,,,,,,,,,
1698691833.611152,1698691833.613651,84.000000,0.000000,4726.666504,4590.769043,4321.538574,4504.102539,4230.256348,450.000000,1.000000,28.000000,,,,0.000000,4.000000,4.000000,2.000000,4.000000,0.000000,50.000000,,,,,,,,,,,,,,,,,,,,,,,,,,,,,,,,
1698691833.619033,1698691833.621632,85.000000,0.000000,4775.384766,4609.230957,4325.128418,4521.025879,4233.846191,450.000000,1.000000,28.000000,,,,0.000000,4.000000,4.000000,2.000000,4.000000,0.000000,50.000000,,,,,,,,,,,,,,,,,,,,,,,,,,,,,,,,
1698691833.626913,1698691833.629612,86.000000,0.000000,4766.153809,4568.205078,4265.128418,4477.948730,4222.051270,450.000000,1.000000,28.000000,,,,0.000000,4.000000,4.000000,2.000000,4.000000,0.000000,50.000000,,,,,,,,,,,,,,,,,,,,,,,,,,,,,,,,
1698691833.634793,1698691833.637393,87.000000,0.000000,4733.333496,4537.436035,4212.820313,4437.948730,4216.922852,0.000000,1.000000,28.000000,,,,0.000000,4.000000,4.000000,2.000000,4.000000,0.000000,50.000000,,,,,,,,,,,,,,,,,,,,,,,,,,,,,,,,
1698691833.642673,1698691833.645173,88.000000,0.000000,4711.794922,4523.077148,4188.717773,4433.333496,4220.000000,450.000000,1.000000,28.000000,,,,0.000000,4.000000,4.000000,2.000000,4.000000,0.000000,50.000000,,,,,,,,,,,,,,,,,,,,,,,,,,,,,,,,
1698691833.650554,1698691833.652953,89.000000,0.000000,4712.820313,4502.563965,4142.051270,4420.512695,4220.512695,450.000000,1.000000,28.000000,,,,0.000000,4.000000,4.000000,2.000000,4.000000,0.000000,50.000000,,,,,,,,,,,,,,,,,,,,,,,,,,,,,,,,
1698691833.658434,1698691833.660733,90.000000,0.000000,4702.563965,4465.641113,4063.589844,4376.410156,4225.128418,450.000000,1.000000,28.000000,,,,0.000000,4.000000,4.000000,2.000000,4.000000,0.000000,50.000000,,,,,,,,,,,,,,,,,,,,,,,,,,,,,,,,
1698691833.666314,1698691833.668713,91.000000,0.000000,4698.461426,4434.871582,4026.666748,4356.410156,4230.769043,0.000000,1.000000,28.000000,,,,0.000000,4.000000,4.000000,2.000000,4.000000,0.000000,50.000000,,,,,,,,,,,,,,,,,,,,,,,,,,,,,,,,
1698691833.674194,1698691833.676494,92.000000,0.000000,4729.230957,4447.179688,4040.000000,4375.897461,4231.794922,450.000000,1.000000,28.000000,,,,0.000000,4.000000,4.000000,2.000000,4.000000,0.000000,50.000000,,,,,,,,,,,,,,,,,,,,,,,,,,,,,,,,
1698691833.682075,1698691833.684474,93.000000,0.000000,4729.743652,4459.487305,4022.051270,4360.512695,4229.230957,450.000000,1.000000,28.000000,,,,0.000000,4.000000,4.000000,2.000000,4.000000,0.000000,50.000000,,,,,,,,30.437922,21.343132,35.276089,15.400668,5.333392,42.659470,17.771263,16.639936,13.295353,4.203452,60.156139,17.029434,11.466131,11.601718,4.135176,43.505680,16.786322,25.335606,10.779143,5.132308,0.025446,0.107445,0.180900,0.158900,0.163305
1698691833.689955,1698691833.692255,94.000000,0.000000,4722.563965,4447.179688,3980.512939,4335.897461,4219.487305,450.000000,1.000000,28.000000,,,,0.000000,4.000000,4.000000,2.000000,4.000000,0.000000,50.000000,,,,,,,,,,,,,,,,,,,,,,,,,,,,,,,,
1698691833.697835,1698691833.700235,95.000000,0.000000,4703.589844,4393.846191,3904.615479,4290.256348,4216.410156,0.000000,1.000000,28.000000,,,,0.000000,4.000000,4.000000,2.000000,4.000000,0.000000,50.000000,,,,,,,,,,,,,,,,,,,,,,,,,,,,,,,,
1698691833.705716,1698691833.708015,96.000000,0.000000,4658.461426,4344.615234,3816.923096,4205.128418,4229.230957,450.000000,1.000000,28.000000,,,,0.000000,4.000000,4.000000,2.000000,4.000000,0.000000,50.000000,,,,,,,,,,,,,,,,,,,,,,,,,,,,,,,,
1698691833.713596,1698691833.715996,97.000000,0.000000,4687.179688,4377.436035,3821.538574,4195.384766,4231.282227,450.000000,1.000000,28.000000,,,,0.000000,4.000000,4.000000,2.000000,4.000000,0.000000,50.000000,,,,,,,,,,,,,,,,,,,,,,,,,,,,,,,,
1698691833.721476,1698691833.723776,98.000000,0.000000,4751.794922,4416.410156,3861.538574,4243.589844,4215.897461,450.000000,1.000000,28.000000,,,,0.000000,4.000000,4.000000,2.000000,4.000000,0.000000,50.000000,,,,,,,,,,,,,,,,,,,,,,,,,,,,,,,,
1698691833.729356,1698691833.731756,99.000000,0.000000,4751.794922,4397.948730,3832.820557,4235.384766,4217.948730,0.000000,1.000000,28.000000,,,,0.000000,4.000000,4.000000,2.000000,4.000000,0.000000,50.000000,,,,,,,,,,,,,,,,,,,,,,,,,,,,,,,,
1698691833.737236,1698691833.739537,100.000000,0.000000,4740.512695,4369.230957,3773.846191,4189.230957,4232.820313,450.000000,1.000000,28.000000,,,,0.000000,4.000000,4.000000,2.000000,4.000000,0.000000,50.000000,,,,,,,,,,,,,,,,,,,,,,,,,,,,,,,,
1698691833.745117,1698691833.747517,101.000000,0.000000,4789.743652,4379.487305,3768.718018,4196.922852,4235.384766,450.000000,1.000000,28.000000,,,,0.000000,4.000000,4.000000,2.000000,4.000000,0.000000,50.000000,,,,,,,,,,,,,,,,,,,,,,,,,,,,,,,,
1698691833.752997,1698691833.755297,102.000000,0.000000,4810.256348,4406.153809,3781.025635,4230.769043,4232.307617,450.000000,1.000000,28.000000,,,,0.000000,4.000000,4.000000,2.000000,4.000000,0.000000,50.000000,,,,,,,,,,,,,,,,,,,,,,,,,,,,,,,,
1698691833.760877,1698691833.763278,103.000000,0.000000,4771.282227,4406.153809,3732.307617,4200.000000,4232.307617,0.000000,1.000000,28.000000,,,,0.000000,4.000000,4.000000,2.000000,4.000000,0.000000,50.000000,,,,,,,,,,,,,,,,,,,,,,,,,,,,,,,,
1698691833.768757,1698691833.771058,104.000000,0.000000,4834.358887,4422.563965,3705.641113,4182.563965,4231.282227,450.000000,1.000000,28.000000,,,,0.000000,4.000000,4.000000,2.000000,4.000000,0.000000,50.000000,,,,,,,,,,,,,,,,,,,,,,,,,,,,,,,,
1698691833.776638,1698691833.779038,105.000000,0.000000,4934.871582,4449.230957,3720.512939,4200.000000,4232.820313,450.000000,1.000000,28.000000,,,,0.000000,4.000000,4.000000,2.000000,4.000000,0.000000,50.000000,,,,,,,,,,,,,,,,,,,,,,,,,,,,,,,,
1698691833.784518,1698691833.786819,106.000000,0.000000,4894.358887,4430.769043,3683.076904,4152.307617,4229.230957,450.000000,1.000000,28.000000,,,,0.000000,4.000000,4.000000,2.000000,4.000000,0.000000,50.000000,,,,,,,,,,,,,,,,,,,,,,,,,,,,,,,,
1698691833.792398,1698691833.794799,107.000000,0.000000,4855.897461,4420.512695,3632.820557,4097.436035,4222.051270,0.000000,1.000000,28.000000,,,,0.000000,4.000000,4.000000,2.000000,4.000000,0.000000,50.000000,,,,,,,,,,,,,,,,,,,,,,,,,,,,,,,,
1698691833.800279,1698691833.802579,108.000000,0.000000,4905.128418,4426.666504,3611.281982,4083.589844,4226.666504,450.000000,1.000000,28.000000,,,,0.000000,4.000000,4.000000,2.000000,4.000000,0.000000,50.000000,,,,,,,,,,,,,,,,,,,,,,,,,,,,,,,,
1698691833.808159,1698691833.810360,109.000000,0.000000,4918.461426,4414.358887,3586.666748,4060.000000,4234.871582,450.000000,1.000000,28.000000,,,,0.000000,4.000000,4.000000,2.000000,4.000000,0.000000,50.000000,,,,,,,,32.698700,18.860567,34.907177,15.086700,5.787001,45.972630,18.075701,16.929134,12.581039,4.673160,64.545166,16.667576,12.114322,10.557411,4.476867,44.343933,16.765863,25.190247,9.868335,5.335576,0.026875,0.100980,0.163093,0.141885,0.160260
1698691833.816039,1698691833.818140,110.000000,0.000000,4872.307617,4363.077148,3532.820557,3996.923096,4231.794922,450.000000,1.000000,28.000000,,,,0.000000,4.000000,4.000000,2.000000,4.000000,0.000000,50.000000,,,,,,,,,,,,,,,,,,,,,,,,,,,,,,,,
1698691833.823919,1698691833.825921,111.000000,0.000000,4863.589844,4340.512695,3504.102539,3951.794922,4229.743652,0.000000,1.000000,28.000000,,,,0.000000,4.000000,4.000000,2.000000,4.000000,0.000000,50.000000,,,,,,,,,,,,,,,,,,,,,,,,,,,,,,,,
1698691833.831800,1698691833.833701,112.000000,0.000000,4937.948730,4418.461426,3553.333252,4002.051270,4232.820313,450.000000,1.000000,28.000000,,,,0.000000,4.000000,4.000000,2.000000,4.000000,0.000000,50.000000,,,,,,,,,,,,,,,,,,,,,,,,,,,,,,,,
1698691833.839680,1698691833.841481,113.000000,0.000000,4973.333496,4436.922852,3554.358887,4017.948730,4231.794922,450.000000,1.000000,28.000000,,,,0.000000,4.000000,4.000000,2.000000,4.000000,0.000000,50.000000,,,,,,,,,,,,,,,,,,,,,,,,,,,,,,,,
1698691833.847560,1698691833.849262,114.000000,0.000000,4923.077148,4342.563965,3450.769287,3910.256348,4230.769043,450.000000,1.000000,28.000000,,,,0.000000,4.000000,4.000000,2.000000,4.000000,0.000000,50.000000,,,,,,,,,,,,,,,,,,,,,,,,,,,,,,,,
1698691833.855440,1698691833.857042,115.000000,0.000000,4891.282227,4307.692383,3373.333252,3819.487061,4232.307617,0.000000,1.000000,28.000000,,,,0.000000,4.000000,4.000000,2.000000,4.000000,0.000000,50.000000,,,,,,,,,,,,,,,,,,,,,,,,,,,,,,,,
1698691833.863321,1698691833.864822,116.000000,0.000000,4875.384766,4315.897461,3347.179443,3780.512939,4231.282227,450.000000,1.000000,28.000000,,,,0.000000,4.000000,4.000000,2.000000,4.000000,0.000000,50.000000,,,,,,,,,,,,,,,,,,,,,,,,,,,,,,,,
1698691833.871201,1698691833.872602,117.000000,0.000000,4830.769043,4268.717773,3282.051270,3703.076904,4231.282227,450.000000,1.000000,28.000000,,,,0.000000,4.000000,4.000000,2.000000,4.000000,0.000000,50.000000,,,,,,,,,,,,,,,,,,,,,,,,,,,,,,,,
1698691833.879081,1698691833.880382,118.000000,0.000000,4790.769043,4209.230957,3195.384521,3601.538574,4231.282227,450.000000,1.000000,28.000000,,,,0.000000,4.000000,4.000000,2.000000,4.000000,0.000000,50.000000,,,,,,,,,,,,,,,,,,,,,,,,,,,,,,,,
1698691833.886961,1698691833.888163,119.000000,0.000000,4795.384766,4198.974121,3181.025635,3566.666748,4231.794922,0.000000,1.000000,28.000000,,,,0.000000,4.000000,4.000000,2.000000,4.000000,0.000000,50.000000,,,,,,,,,,,,,,,,,,,,,,,,,,,,,,,,
1698691833.894842,1698691833.895943,120.000000,0.000000,4793.333496,4190.769043,3186.153809,3555.384521,4231.282227,450.000000,1.000000,28.000000,,,,0.000000,4.000000,4.000000,2.000000,4.000000,0.000000,50.000000,,,,,,,,,,,,,,,,,,,,,,,,,,,,,,,,
1698691833.902722,1698691833.903723,121.000000,0.000000,4743.077148,4141.538574,3132.820557,3486.153809,4230.769043,450.000000,1.000000,28.000000,,,,0.000000,4.000000,4.000000,2.000000,4.000000,0.000000,50.000000,,,,,,,,,,,,,,,,,,,,,,,,,,,,,,,,
1698691833.910602,1698691833.911503,122.000000,0.000000,4732.307617,4123.077148,3105.128174,3441.025635,4231.794922,450.000000,1.000000,28.000000,,,,0.000000,4.000000,4.000000,2.000000,4.000000,0.000000,50.000000,,,,,,,,,,,,,,,,,,,,,,,,,,,,,,,,
1698691833.918482,1698691833.919484,123.000000,0.000000,4755.897461,4129.230957,3107.692383,3431.794922,4232.820313,0.000000,1.000000,28.000000,,,,0.000000,4.000000,4.000000,2.000000,4.000000,0.000000,50.000000,,,,,,,,,,,,,,,,,,,,,,,,,,,,,,,,
1698691833.926363,1698691833.927464,124.000000,0.000000,4734.871582,4112.820313,3071.281982,3393.846191,4231.794922,450.000000,1.000000,28.000000,,,,0.000000,4.000000,4.000000,2.000000,4.000000,0.000000,50.000000,,,,,,,,,,,,,,,,,,,,,,,,,,,,,,,,
1698691833.934243,1698691833.935445,125.000000,0.000000,4680.000000,4077.948730,3001.538574,3345.128174,4232.307617,450.000000,1.000000,28.000000,,,,0.000000,4.000000,4.000000,2.000000,4.000000,0.000000,50.000000,,,,,,,,33.777649,16.960995,32.322189,13.622530,5.975902,45.566231,18.246183,17.916996,11.008734,5.015582,61.544960,15.966778,13.124039,8.807502,4.581482,40.842690,16.531906,25.010113,8.263433,5.285378,0.027102,0.084806,0.131796,0.113301,0.137097
1698691833.942123,1698691833.943425,126.000000,0.000000,4638.461426,4036.923096,2942.564209,3292.820557,4232.820313,450.000000,1.000000,28.000000,,,,0.000000,4.000000,4.000000,2.000000,4.000000,0.000000,50.000000,,,,,,,,,,,,,,,,,,,,,,,,,,,,,,,,
1698691833.950004,1698691833.951205,127.000000,0.000000,4632.307617,4014.358887,2912.820557,3235.384521,4232.307617,230.000000,1.000000,28.000000,,,,0.000000,4.000000,4.000000,2.000000,4.000000,0.000000,50.000000,,,,,,,,,,,,,,,,,,,,,,,,,,,,,,,,
1698691833.957884,1698691833.958985,0.000000,0.000000,4589.230957,3983.589844,2858.461426,3169.230713,4230.769043,450.000000,1.000000,28.000000,,,,0.000000,4.000000,4.000000,2.000000,4.000000,0.000000,50.000000,,,,,,,,,,,,,,,,,,,,,,,,,,,,,,,,
1698691833.965764,1698691833.966966,1.000000,0.000000,4510.256348,3948.718018,2794.358887,3115.897461,4231.282227,450.000000,1.000000,28.000000,,,,0.000000,4.000000,4.000000,2.000000,4.000000,0.000000,50.000000,,,,,,,,,,,,,,,,,,,,,,,,,,,,,,,,
1698691833.973644,1698691833.974946,2.000000,0.000000,4454.871582,3940.512939,2769.230713,3086.666748,4232.307617,1023.000000,1.000000,28.000000,,,,0.000000,4.000000,4.000000,2.000000,4.000000,0.000000,50.000000,,,,,,,,,,,,,,,,,,,,,,,,,,,,,,,,
1698691833.981524,1698691833.982926,3.000000,0.000000,4341.025879,3905.641113,2727.179443,3019.487061,4232.307617,450.000000,1.000000,28.000000,,,,0.000000,4.000000,4.000000,2.000000,4.000000,0.000000,50.000000,,,,,,,,,,,,,,,,,,,,,,,,,,,,,,,,
1698691833.989405,1698691833.990907,4.000000,0.000000,4222.051270,3878.974365,2688.205078,2952.307617,4232.307617,1023.000000,1.000000,28.000000,,,,0.000000,4.000000,4.000000,2.000000,4.000000,0.000000,50.000000,,,,,,,,,,,,,,,,,,,,,,,,,,,,,,,,
1698691833.997285,1698691833.998887,5.000000,0.000000,4228.205078,3883.076904,2705.641113,2957.435791,4232.307617,450.000000,1.000000,28.000000,,,,0.000000,4.000000,4.000000,2.000000,4.000000,0.000000,50.000000,,,,,,,,,,,,,,,,,,,,,,,,,,,,,,,,
1698691834.005165,1698691834.006667,6.000000,0.000000,4274.358887,3835.897461,2713.333252,2970.256348,4232.307617,1023.000000,1.000000,28.000000,,,,0.000000,4.000000,4.000000,4.000000,4.000000,0.000000,66.666664,,,,,,,,,,,,,,,,,,,,,,,,,,,,,,,,
1698691834.013045,1698691834.014648,7.000000,0.000000,4254.871582,3755.897461,2670.769287,2937.948730,4232.307617,450.000000,1.000000,28.000000,,,,0.000000,4.000000,4.000000,4.000000,4.000000,0.000000,66.666664,,,,,,,,,,,,,,,,,,,,,,,,,,,,,,,,
1698691834.020926,1698691834.022428,8.000000,0.000000,4198.461426,3692.307617,2601.538574,2869.230713,4232.307617,450.000000,1.000000,28.000000,,,,0.000000,4.000000,4.000000,4.000000,4.000000,0.000000,66.666664,,,,,,,,,,,,,,,,,,,,,,,,,,,,,,,,
